TimeStamp,Delta_TP9,Delta_AF7,Delta_AF8,Delta_TP10,Theta_TP9,Theta_AF7,Theta_AF8,Theta_TP10,Alpha_TP9,Alpha_AF7,Alpha_AF8,Alpha_TP10,Beta_TP9,Beta_AF7,Beta_AF8,Beta_TP10,Gamma_TP9,Gamma_AF7,Gamma_AF8,Gamma_TP10,RAW_TP9,RAW_AF7,RAW_AF8,RAW_TP10,AUX_RIGHT,Mellow,Concentration,Accelerometer_X,Accelerometer_Y,Accelerometer_Z,Gyro_X,Gyro_Y,Gyro_Z,HeadBandOn,HSI_TP9,HSI_AF7,HSI_AF8,HSI_TP10,Battery,Elements
2021-07-27 00:55:29.448,0.48273504,0.0,0.0,0.52987534,0.5366993,0.0,0.0,0.3419647,1.2227682,0.0,0.0,0.5307737,1.3678409,0.0,0.0,1.3554169,1.112844,0.0,0.0,1.0673914,802.23444,788.93774,800.6227,841.7216,863.0769,0.0,0.0,-0.10052490234375,0.037109375,0.98992919921875,8.74786376953125,6.56463623046875,0.082244873046875,1,1.0,1.0,1.0,1.0,15.00
2021-07-27 00:55:29.449,0.48273504,0.0,0.0,0.52987534,0.5366993,0.0,0.0,0.3419647,1.2227682,0.0,0.0,0.5307737,1.3678409,0.0,0.0,1.3554169,1.112844,0.0,0.0,1.0673914,837.6923,814.7253,827.2161,794.57874,865.89746,0.0,0.0,-0.10052490234375,0.037109375,0.98992919921875,8.74786376953125,6.56463623046875,0.082244873046875,1,1.0,1.0,1.0,1.0,15.00
2021-07-27 00:55:29.449,0.48273504,0.0,0.0,0.52987534,0.5366993,0.0,0.0,0.3419647,1.2227682,0.0,0.0,0.5307737,1.3678409,0.0,0.0,1.3554169,1.112844,0.0,0.0,1.0673914,837.6923,795.78754,792.1612,769.19415,749.45056,0.0,0.0,-0.10052490234375,0.037109375,0.98992919921875,8.74786376953125,6.56463623046875,0.082244873046875,1,1.0,1.0,1.0,1.0,15.00
2021-07-27 00:55:29.450,0.48273504,0.0,0.0,0.52987534,0.5366993,0.0,0.0,0.3419647,1.2227682,0.0,0.0,0.5307737,1.3678409,0.0,0.0,1.3554169,1.112844,0.0,0.0,1.0673914,819.5604,774.83514,790.9524,790.14655,766.3736,0.0,0.0,-0.10052490234375,0.037109375,0.98992919921875,8.74786376953125,6.56463623046875,0.082244873046875,1,1.0,1.0,1.0,1.0,15.00
2021-07-27 00:55:29.450,0.48273504,0.0,0.0,0.52987534,0.5366993,0.0,0.0,0.3419647,1.2227682,0.0,0.0,0.5307737,1.3678409,0.0,0.0,1.3554169,1.112844,0.0,0.0,1.0673914,801.02563,822.381,791.3553,849.3773,848.97437,0.0,0.0,-0.10052490234375,0.037109375,0.98992919921875,8.74786376953125,6.56463623046875,0.082244873046875,1,1.0,1.0,1.0,1.0,15.00
2021-07-27 00:55:29.450,0.48273504,0.0,0.0,0.52987534,0.5366993,0.0,0.0,0.3419647,1.2227682,0.0,0.0,0.5307737,1.3678409,0.0,0.0,1.3554169,1.112844,0.0,0.0,1.0673914,790.14655,776.8498,770.40295,838.0952,823.9927,0.0,0.0,-0.10052490234375,0.037109375,0.98992919921875,8.74786376953125,6.56463623046875,0.082244873046875,1,1.0,1.0,1.0,1.0,15.00
2021-07-27 00:55:29.450,0.48273504,0.0,0.0,0.52987534,0.5366993,0.0,0.0,0.3419647,1.2227682,0.0,0.0,0.5307737,1.3678409,0.0,0.0,1.3554169,1.112844,0.0,0.0,1.0673914,826.4103,788.93774,812.3077,804.65204,809.0842,0.0,0.0,-0.10052490234375,0.037109375,0.98992919921875,8.74786376953125,6.56463623046875,0.082244873046875,1,1.0,1.0,1.0,1.0,15.00
2021-07-27 00:55:29.450,0.51825994,0.0,0.0,0.52987534,0.56402045,0.0,0.0,0.3419647,1.2227682,0.0,0.0,0.5307737,1.3858474,0.0,0.0,1.3554169,1.1204493,0.0,0.0,1.0673914,817.5458,849.7802,837.6923,759.12085,808.68134,0.0,0.0,-0.10052490234375,0.037109375,0.98992919921875,8.74786376953125,6.56463623046875,0.082244873046875,1,1.0,1.0,1.0,1.0,15.00
2021-07-27 00:55:29.453,0.51825994,0.0,0.0,0.52987534,0.56402045,0.0,0.0,0.3419647,1.2227682,0.0,0.0,0.5307737,1.3858474,0.0,0.0,1.3554169,1.1204493,0.0,0.0,1.0673914,794.57874,843.3333,848.5714,764.7619,729.707,0.0,0.0,-0.10052490234375,0.037109375,0.98992919921875,8.74786376953125,6.56463623046875,0.082244873046875,1,1.0,1.0,1.0,1.0,15.00
2021-07-27 00:55:29.453,0.51825994,0.0,0.0,0.52987534,0.56402045,0.0,0.0,0.3419647,1.2227682,0.0,0.0,0.5307737,1.3858474,0.0,0.0,1.3554169,1.1204493,0.0,0.0,1.0673914,809.0842,825.2015,855.82416,853.00366,733.3333,0.0,0.0,-0.10052490234375,0.037109375,0.98992919921875,8.74786376953125,6.56463623046875,0.082244873046875,1,1.0,1.0,1.0,1.0,15.00
2021-07-27 00:55:29.453,0.51825994,0.0,0.0,0.52987534,0.56402045,0.0,0.0,0.3419647,1.2227682,0.0,0.0,0.5307737,1.3858474,0.0,0.0,1.3554169,1.1204493,0.0,0.0,1.0673914,811.0989,789.34064,793.36993,862.674,862.674,0.0,0.0,-0.10052490234375,0.037109375,0.98992919921875,8.74786376953125,6.56463623046875,0.082244873046875,1,1.0,1.0,1.0,1.0,15.00
2021-07-27 00:55:29.453,0.51825994,0.0,0.0,0.52987534,0.56402045,0.0,0.0,0.3419647,1.2227682,0.0,0.0,0.5307737,1.3858474,0.0,0.0,1.3554169,1.1204493,0.0,0.0,1.0673914,822.381,779.67035,772.8205,810.293,835.6777,0.0,0.0,-0.10052490234375,0.037109375,0.98992919921875,8.74786376953125,6.56463623046875,0.082244873046875,1,1.0,1.0,1.0,1.0,15.00
2021-07-27 00:55:29.526,0.51825994,0.0,0.0,0.52987534,0.56402045,0.0,0.0,0.3419647,1.2227682,0.0,0.0,0.5307737,1.3858474,0.0,0.0,1.3554169,1.1204493,0.0,0.0,1.0673914,815.5311,797.3993,795.78754,764.7619,763.95605,0.0,0.0,-0.119384765625,0.0853271484375,0.97149658203125,12.42645263671875,4.53094482421875,1.00189208984375,1,1.0,1.0,1.0,1.0,15.00
2021-07-27 00:55:29.527,0.51825994,0.0,0.0,0.52987534,0.56402045,0.0,0.0,0.3419647,1.2227682,0.0,0.0,0.5307737,1.3858474,0.0,0.0,1.3554169,1.1204493,0.0,0.0,1.0673914,788.93774,780.4762,792.1612,759.92676,789.34064,0.0,0.0,-0.119384765625,0.0853271484375,0.97149658203125,12.42645263671875,4.53094482421875,1.00189208984375,1,1.0,1.0,1.0,1.0,15.00
2021-07-27 00:55:29.527,0.51825994,0.0,0.0,0.52987534,0.56402045,0.0,0.0,0.3419647,1.2227682,0.0,0.0,0.5307737,1.3858474,0.0,0.0,1.3554169,1.1204493,0.0,0.0,1.0673914,800.2198,815.9341,808.2784,841.31866,795.78754,0.0,0.0,-0.119384765625,0.0853271484375,0.97149658203125,12.42645263671875,4.53094482421875,1.00189208984375,1,1.0,1.0,1.0,1.0,15.00
2021-07-27 00:55:29.528,0.51825994,0.0,0.0,0.52987534,0.56402045,0.0,0.0,0.3419647,1.2227682,0.0,0.0,0.5307737,1.3858474,0.0,0.0,1.3554169,1.1204493,0.0,0.0,1.0673914,803.0403,831.2454,817.1429,861.8681,767.1795,0.0,0.0,-0.119384765625,0.0853271484375,0.97149658203125,12.42645263671875,4.53094482421875,1.00189208984375,1,1.0,1.0,1.0,1.0,15.00
2021-07-27 00:55:29.528,0.51825994,0.0,0.0,0.52987534,0.56402045,0.0,0.0,0.3419647,1.2227682,0.0,0.0,0.5307737,1.3858474,0.0,0.0,1.3554169,1.1204493,0.0,0.0,1.0673914,819.15753,825.6044,836.08057,819.15753,704.7253,0.0,0.0,-0.119384765625,0.0853271484375,0.97149658203125,12.42645263671875,4.53094482421875,1.00189208984375,1,1.0,1.0,1.0,1.0,15.00
2021-07-27 00:55:29.528,0.51825994,0.0,0.0,0.52987534,0.56402045,0.0,0.0,0.3419647,1.2227682,0.0,0.0,0.5307737,1.3858474,0.0,0.0,1.3554169,1.1204493,0.0,0.0,1.0673914,845.34796,844.1392,825.2015,794.17584,655.16486,0.0,0.0,-0.119384765625,0.0853271484375,0.97149658203125,12.42645263671875,4.53094482421875,1.00189208984375,1,1.0,1.0,1.0,1.0,15.00
2021-07-27 00:55:29.529,0.51825994,0.0,0.0,0.52987534,0.56402045,0.0,0.0,0.3419647,1.2227682,0.0,0.0,0.5307737,1.3858474,0.0,0.0,1.3554169,1.1204493,0.0,0.0,1.0673914,835.2747,819.15753,816.7399,786.52014,702.71063,0.0,0.0,-0.119384765625,0.0853271484375,0.97149658203125,12.42645263671875,4.53094482421875,1.00189208984375,1,1.0,1.0,1.0,1.0,15.00
2021-07-27 00:55:29.529,0.51825994,0.0,0.0,0.52987534,0.56402045,0.0,0.0,0.3419647,1.2227682,0.0,0.0,0.5307737,1.3858474,0.0,0.0,1.3554169,1.1204493,0.0,0.0,1.0673914,817.1429,806.6667,831.6484,845.34796,701.0989,0.0,0.0,-0.119384765625,0.0853271484375,0.97149658203125,12.42645263671875,4.53094482421875,1.00189208984375,1,1.0,1.0,1.0,1.0,15.00
2021-07-27 00:55:29.529,0.51825994,0.0,0.0,0.52987534,0.56402045,0.0,0.0,0.3419647,1.2227682,0.0,0.0,0.5307737,1.3858474,0.0,0.0,1.3554169,1.1204493,0.0,0.0,1.0673914,807.0696,788.5348,813.5165,871.53845,726.4835,0.0,0.0,-0.119384765625,0.0853271484375,0.97149658203125,12.42645263671875,4.53094482421875,1.00189208984375,1,1.0,1.0,1.0,1.0,15.00
2021-07-27 00:55:29.529,0.51825994,0.0,0.0,0.52987534,0.56402045,0.0,0.0,0.3419647,1.2227682,0.0,0.0,0.5307737,1.3858474,0.0,0.0,1.3554169,1.1204493,0.0,0.0,1.0673914,779.67035,720.0366,774.83514,779.67035,828.8278,0.0,0.0,-0.119384765625,0.0853271484375,0.97149658203125,12.42645263671875,4.53094482421875,1.00189208984375,1,1.0,1.0,1.0,1.0,15.00
2021-07-27 00:55:29.529,0.51825994,0.0,0.0,0.52987534,0.56402045,0.0,0.0,0.3419647,1.2227682,0.0,0.0,0.5307737,1.3858474,0.0,0.0,1.3554169,1.1204493,0.0,0.0,1.0673914,813.1135,779.67035,763.95605,749.85345,817.5458,0.0,0.0,-0.119384765625,0.0853271484375,0.97149658203125,12.42645263671875,4.53094482421875,1.00189208984375,1,1.0,1.0,1.0,1.0,15.00
2021-07-27 00:55:29.530,0.51825994,0.0,0.0,0.52987534,0.56402045,0.0,0.0,0.3419647,1.2227682,0.0,0.0,0.5307737,1.3858474,0.0,0.0,1.3554169,1.1204493,0.0,0.0,1.0673914,833.2601,844.1392,778.46155,770.40295,820.3663,0.0,0.0,-0.119384765625,0.0853271484375,0.97149658203125,12.42645263671875,4.53094482421875,1.00189208984375,1,1.0,1.0,1.0,1.0,15.00
2021-07-27 00:55:29.530,0.51825994,0.0,0.0,0.52987534,0.56402045,0.0,0.0,0.3419647,1.2227682,0.0,0.0,0.5307737,1.3858474,0.0,0.0,1.3554169,1.1204493,0.0,0.0,1.0673914,821.978,816.7399,808.68134,832.4542,864.68866,0.0,0.0,-0.12457275390625,0.09716796875,0.96685791015625,4.089813232421875,1.07666015625,0.814971923828125,1,1.0,1.0,1.0,1.0,15.00
2021-07-27 00:55:29.530,0.51825994,0.0,0.0,0.52987534,0.56402045,0.0,0.0,0.3419647,1.2227682,0.0,0.0,0.5307737,1.3858474,0.0,0.0,1.3554169,1.1204493,0.0,0.0,1.0673914,817.5458,826.4103,844.94507,869.12085,784.10254,0.0,0.0,-0.12457275390625,0.09716796875,0.96685791015625,4.089813232421875,1.07666015625,0.814971923828125,1,1.0,1.0,1.0,1.0,15.00
2021-07-27 00:55:29.531,0.51825994,0.0,0.0,0.52987534,0.56402045,0.0,0.0,0.3419647,1.2227682,0.0,0.0,0.5307737,1.3858474,0.0,0.0,1.3554169,1.1204493,0.0,0.0,1.0673914,780.87915,837.28937,844.94507,792.5641,728.9011,0.0,0.0,-0.12457275390625,0.09716796875,0.96685791015625,4.089813232421875,1.07666015625,0.814971923828125,1,1.0,1.0,1.0,1.0,15.00
2021-07-27 00:55:29.531,0.51825994,0.0,0.0,0.52987534,0.56402045,0.0,0.0,0.3419647,1.2227682,0.0,0.0,0.5307737,1.3858474,0.0,0.0,1.3554169,1.1204493,0.0,0.0,1.0673914,778.86444,807.8755,806.26373,738.5714,733.3333,0.0,0.0,-0.12457275390625,0.09716796875,0.96685791015625,4.089813232421875,1.07666015625,0.814971923828125,1,1.0,1.0,1.0,1.0,15.00
2021-07-27 00:55:29.531,0.51825994,0.0,0.0,0.52987534,0.56402045,0.0,0.0,0.3419647,1.2227682,0.0,0.0,0.5307737,1.3858474,0.0,0.0,1.3554169,1.1204493,0.0,0.0,1.0673914,791.75824,786.1172,783.69965,738.97437,758.315,0.0,0.0,-0.12457275390625,0.09716796875,0.96685791015625,4.089813232421875,1.07666015625,0.814971923828125,1,1.0,1.0,1.0,1.0,15.00
2021-07-27 00:55:29.531,0.51825994,0.0,0.0,0.52987534,0.56402045,0.0,0.0,0.3419647,1.2227682,0.0,0.0,0.5307737,1.3858474,0.0,0.0,1.3554169,1.1204493,0.0,0.0,1.0673914,806.26373,764.7619,798.20514,810.293,788.93774,0.0,0.0,-0.12457275390625,0.09716796875,0.96685791015625,4.089813232421875,1.07666015625,0.814971923828125,1,1.0,1.0,1.0,1.0,15.00
2021-07-27 00:55:29.531,0.51825994,0.0,0.0,0.52987534,0.56402045,0.0,0.0,0.3419647,1.2227682,0.0,0.0,0.5307737,1.3858474,0.0,0.0,1.3554169,1.1204493,0.0,0.0,1.0673914,803.0403,781.685,788.93774,853.4066,847.3626,0.0,0.0,-0.12457275390625,0.09716796875,0.96685791015625,4.089813232421875,1.07666015625,0.814971923828125,1,1.0,1.0,1.0,1.0,15.00
2021-07-27 00:55:29.532,0.51825994,0.0,0.0,0.52987534,0.56402045,0.0,0.0,0.3419647,1.2227682,0.0,0.0,0.5307737,1.3858474,0.0,0.0,1.3554169,1.1204493,0.0,0.0,1.0673914,763.5531,776.8498,773.6264,784.5055,935.6044,0.0,0.0,-0.12457275390625,0.09716796875,0.96685791015625,4.089813232421875,1.07666015625,0.814971923828125,1,1.0,1.0,1.0,1.0,15.00
2021-07-27 00:55:29.532,0.51825994,0.0,0.0,0.52987534,0.56402045,0.0,0.0,0.3419647,1.2227682,0.0,0.0,0.5307737,1.3858474,0.0,0.0,1.3554169,1.1204493,0.0,0.0,1.0673914,794.57874,776.4469,801.8315,741.79486,901.3553,0.0,0.0,-0.12457275390625,0.09716796875,0.96685791015625,4.089813232421875,1.07666015625,0.814971923828125,1,1.0,1.0,1.0,1.0,15.00
2021-07-27 00:55:29.532,0.55864984,0.0,0.0,0.52987534,0.59963626,0.0,0.0,0.3419647,1.2227682,0.0,0.0,0.5307737,1.3950553,0.0,0.0,1.3554169,1.1158177,0.0,0.0,1.0673914,837.6923,834.0659,842.1245,763.95605,798.20514,0.0,0.0,-0.12457275390625,0.09716796875,0.96685791015625,4.089813232421875,1.07666015625,0.814971923828125,1,1.0,1.0,1.0,1.0,15.00
2021-07-27 00:55:29.534,0.55864984,0.0,0.0,0.52987534,0.59963626,0.0,0.0,0.3419647,1.2227682,0.0,0.0,0.5307737,1.3950553,0.0,0.0,1.3554169,1.1158177,0.0,0.0,1.0673914,815.9341,824.3956,836.08057,812.3077,815.9341,0.0,0.0,-0.12457275390625,0.09716796875,0.96685791015625,4.089813232421875,1.07666015625,0.814971923828125,1,1.0,1.0,1.0,1.0,15.00
2021-07-27 00:55:29.534,0.55864984,0.0,0.0,0.52987534,0.59963626,0.0,0.0,0.3419647,1.2227682,0.0,0.0,0.5307737,1.3950553,0.0,0.0,1.3554169,1.1158177,0.0,0.0,1.0673914,779.67035,785.31134,800.2198,841.31866,854.21246,0.0,0.0,-0.12457275390625,0.09716796875,0.96685791015625,4.089813232421875,1.07666015625,0.814971923828125,1,1.0,1.0,1.0,1.0,15.00
2021-07-27 00:55:29.558,0.55864984,0.0,0.0,0.52987534,0.59963626,0.0,0.0,0.3419647,1.2227682,0.0,0.0,0.5307737,1.3950553,0.0,0.0,1.3554169,1.1158177,0.0,0.0,1.0673914,761.9414,790.54944,800.2198,798.60803,853.8095,0.0,0.0,-0.12408447265625,0.0823974609375,0.930419921875,1.016845703125,-5.181427001953125,1.861724853515625,1,1.0,1.0,1.0,1.0,15.00
2021-07-27 00:55:29.559,0.55864984,0.0,0.0,0.52987534,0.59963626,0.0,0.0,0.3419647,1.2227682,0.0,0.0,0.5307737,1.3950553,0.0,0.0,1.3554169,1.1158177,0.0,0.0,1.0673914,779.2674,790.9524,789.7436,747.03296,810.293,0.0,0.0,-0.12408447265625,0.0823974609375,0.930419921875,1.016845703125,-5.181427001953125,1.861724853515625,1,1.0,1.0,1.0,1.0,15.00
2021-07-27 00:55:29.560,0.55864984,0.0,0.0,0.52987534,0.59963626,0.0,0.0,0.3419647,1.2227682,0.0,0.0,0.5307737,1.3950553,0.0,0.0,1.3554169,1.1158177,0.0,0.0,1.0673914,811.50183,791.75824,782.49084,751.8681,745.0183,0.0,0.0,-0.12408447265625,0.0823974609375,0.930419921875,1.016845703125,-5.181427001953125,1.861724853515625,1,1.0,1.0,1.0,1.0,15.00
2021-07-27 00:55:29.560,0.55864984,0.0,0.0,0.52987534,0.59963626,0.0,0.0,0.3419647,1.2227682,0.0,0.0,0.5307737,1.3950553,0.0,0.0,1.3554169,1.1158177,0.0,0.0,1.0673914,831.6484,781.685,813.1135,832.0513,714.7985,0.0,0.0,-0.12408447265625,0.0823974609375,0.930419921875,1.016845703125,-5.181427001953125,1.861724853515625,1,1.0,1.0,1.0,1.0,15.00
2021-07-27 00:55:29.561,0.55864984,0.0,0.0,0.52987534,0.59963626,0.0,0.0,0.3419647,1.2227682,0.0,0.0,0.5307737,1.3950553,0.0,0.0,1.3554169,1.1158177,0.0,0.0,1.0673914,821.1722,804.65204,821.978,877.1795,737.76556,0.0,0.0,-0.12408447265625,0.0823974609375,0.930419921875,1.016845703125,-5.181427001953125,1.861724853515625,1,1.0,1.0,1.0,1.0,15.00
2021-07-27 00:55:29.561,0.55864984,0.0,0.0,0.52987534,0.59963626,0.0,0.0,0.3419647,1.2227682,0.0,0.0,0.5307737,1.3950553,0.0,0.0,1.3554169,1.1158177,0.0,0.0,1.0673914,790.14655,799.41394,816.7399,807.47253,836.8865,0.0,0.0,-0.12408447265625,0.0823974609375,0.930419921875,1.016845703125,-5.181427001953125,1.861724853515625,1,1.0,1.0,1.0,1.0,15.00
2021-07-27 00:55:29.562,0.55864984,0.0,0.0,0.52987534,0.59963626,0.0,0.0,0.3419647,1.2227682,0.0,0.0,0.5307737,1.3950553,0.0,0.0,1.3554169,1.1158177,0.0,0.0,1.0673914,776.4469,784.90845,810.293,761.53845,846.9597,0.0,0.0,-0.12408447265625,0.0823974609375,0.930419921875,1.016845703125,-5.181427001953125,1.861724853515625,1,1.0,1.0,1.0,1.0,15.00
2021-07-27 00:55:29.562,0.55864984,0.0,0.0,0.52987534,0.59963626,0.0,0.0,0.3419647,1.2227682,0.0,0.0,0.5307737,1.3950553,0.0,0.0,1.3554169,1.1158177,0.0,0.0,1.0673914,791.3553,806.26373,815.12823,742.1978,815.12823,0.0,0.0,-0.12408447265625,0.0823974609375,0.930419921875,1.016845703125,-5.181427001953125,1.861724853515625,1,1.0,1.0,1.0,1.0,15.00
2021-07-27 00:55:29.563,0.55864984,0.0,0.0,0.52987534,0.59963626,0.0,0.0,0.3419647,1.2227682,0.0,0.0,0.5307737,1.3950553,0.0,0.0,1.3554169,1.1158177,0.0,0.0,1.0673914,782.8938,807.0696,819.9634,757.50916,828.8278,0.0,0.0,-0.12408447265625,0.0823974609375,0.930419921875,1.016845703125,-5.181427001953125,1.861724853515625,1,1.0,1.0,1.0,1.0,15.00
2021-07-27 00:55:29.563,0.55864984,0.0,0.0,0.52987534,0.59963626,0.0,0.0,0.3419647,1.2227682,0.0,0.0,0.5307737,1.3950553,0.0,0.0,1.3554169,1.1158177,0.0,0.0,1.0673914,780.07324,787.326,814.3223,821.5751,795.38464,0.0,0.0,-0.12408447265625,0.0823974609375,0.930419921875,1.016845703125,-5.181427001953125,1.861724853515625,1,1.0,1.0,1.0,1.0,15.00
2021-07-27 00:55:29.564,0.55864984,0.0,0.0,0.52987534,0.59963626,0.0,0.0,0.3419647,1.2227682,0.0,0.0,0.5307737,1.3950553,0.0,0.0,1.3554169,1.1158177,0.0,0.0,1.0673914,790.14655,790.9524,808.2784,818.7546,844.5421,0.0,0.0,-0.12408447265625,0.0823974609375,0.930419921875,1.016845703125,-5.181427001953125,1.861724853515625,1,1.0,1.0,1.0,1.0,15.00
2021-07-27 00:55:29.564,0.55864984,0.0,0.0,0.52987534,0.59963626,0.0,0.0,0.3419647,1.2227682,0.0,0.0,0.5307737,1.3950553,0.0,0.0,1.3554169,1.1158177,0.0,0.0,1.0673914,795.38464,808.68134,774.43225,759.92676,853.8095,0.0,0.0,-0.12408447265625,0.0823974609375,0.930419921875,1.016845703125,-5.181427001953125,1.861724853515625,1,1.0,1.0,1.0,1.0,15.00
2021-07-27 00:55:29.564,0.55864984,0.0,0.0,0.52987534,0.59963626,0.0,0.0,0.3419647,1.2227682,0.0,0.0,0.5307737,1.3950553,0.0,0.0,1.3554169,1.1158177,0.0,0.0,1.0673914,805.4579,809.0842,754.2857,737.76556,786.9231,0.0,0.0,-0.12408447265625,0.0823974609375,0.930419921875,1.016845703125,-5.181427001953125,1.861724853515625,1,1.0,1.0,1.0,1.0,15.00
2021-07-27 00:55:29.565,0.55864984,0.0,0.0,0.52987534,0.59963626,0.0,0.0,0.3419647,1.2227682,0.0,0.0,0.5307737,1.3950553,0.0,0.0,1.3554169,1.1158177,0.0,0.0,1.0673914,797.8022,803.0403,770.0,759.5238,797.3993,0.0,0.0,-0.12408447265625,0.0823974609375,0.930419921875,1.016845703125,-5.181427001953125,1.861724853515625,1,1.0,1.0,1.0,1.0,15.00
2021-07-27 00:55:29.565,0.55864984,0.0,0.0,0.52987534,0.59963626,0.0,0.0,0.3419647,1.2227682,0.0,0.0,0.5307737,1.3950553,0.0,0.0,1.3554169,1.1158177,0.0,0.0,1.0673914,798.20514,782.49084,796.1905,822.381,835.2747,0.0,0.0,-0.12408447265625,0.0823974609375,0.930419921875,1.016845703125,-5.181427001953125,1.861724853515625,1,1.0,1.0,1.0,1.0,15.00
2021-07-27 00:55:29.565,0.55864984,0.0,0.0,0.52987534,0.59963626,0.0,0.0,0.3419647,1.2227682,0.0,0.0,0.5307737,1.3950553,0.0,0.0,1.3554169,1.1158177,0.0,0.0,1.0673914,833.663,765.56775,836.8865,853.4066,869.12085,0.0,0.0,-0.12408447265625,0.0823974609375,0.930419921875,1.016845703125,-5.181427001953125,1.861724853515625,1,1.0,1.0,1.0,1.0,15.00
2021-07-27 00:55:29.566,0.55864984,0.0,0.0,0.52987534,0.59963626,0.0,0.0,0.3419647,1.2227682,0.0,0.0,0.5307737,1.3950553,0.0,0.0,1.3554169,1.1158177,0.0,0.0,1.0673914,821.1722,763.95605,820.7692,785.7143,816.337,0.0,0.0,-0.12408447265625,0.0823974609375,0.930419921875,1.016845703125,-5.181427001953125,1.861724853515625,1,1.0,1.0,1.0,1.0,15.00
2021-07-27 00:55:29.566,0.55864984,0.0,0.0,0.52987534,0.59963626,0.0,0.0,0.3419647,1.2227682,0.0,0.0,0.5307737,1.3950553,0.0,0.0,1.3554169,1.1158177,0.0,0.0,1.0673914,794.9817,787.326,786.1172,742.1978,857.03296,0.0,0.0,-0.12408447265625,0.0823974609375,0.930419921875,1.016845703125,-5.181427001953125,1.861724853515625,1,1.0,1.0,1.0,1.0,15.00
2021-07-27 00:55:29.566,0.55864984,0.0,0.0,0.52987534,0.59963626,0.0,0.0,0.3419647,1.2227682,0.0,0.0,0.5307737,1.3950553,0.0,0.0,1.3554169,1.1158177,0.0,0.0,1.0673914,814.3223,787.72894,788.1319,776.4469,885.2381,0.0,0.0,-0.12408447265625,0.0823974609375,0.930419921875,1.016845703125,-5.181427001953125,1.861724853515625,1,1.0,1.0,1.0,1.0,15.00
2021-07-27 00:55:29.566,0.55864984,0.0,0.0,0.52987534,0.59963626,0.0,0.0,0.3419647,1.2227682,0.0,0.0,0.5307737,1.3950553,0.0,0.0,1.3554169,1.1158177,0.0,0.0,1.0673914,811.50183,762.74725,790.54944,842.1245,805.8608,0.0,0.0,-0.12408447265625,0.0823974609375,0.930419921875,1.016845703125,-5.181427001953125,1.861724853515625,1,1.0,1.0,1.0,1.0,15.00
2021-07-27 00:55:29.567,0.55864984,0.0,0.0,0.52987534,0.59963626,0.0,0.0,0.3419647,1.2227682,0.0,0.0,0.5307737,1.3950553,0.0,0.0,1.3554169,1.1158177,0.0,0.0,1.0673914,783.2967,819.15753,774.0293,835.2747,814.3223,0.0,0.0,-0.12408447265625,0.0823974609375,0.930419921875,1.016845703125,-5.181427001953125,1.861724853515625,1,1.0,1.0,1.0,1.0,15.00
2021-07-27 00:55:29.567,0.55864984,0.0,0.0,0.52987534,0.59963626,0.0,0.0,0.3419647,1.2227682,0.0,0.0,0.5307737,1.3950553,0.0,0.0,1.3554169,1.1158177,0.0,0.0,1.0673914,761.9414,834.0659,764.7619,759.92676,858.24176,0.0,0.0,-0.12408447265625,0.0823974609375,0.930419921875,1.016845703125,-5.181427001953125,1.861724853515625,1,1.0,1.0,1.0,1.0,15.00
2021-07-27 00:55:29.567,0.55864984,0.0,0.0,0.52987534,0.59963626,0.0,0.0,0.3419647,1.2227682,0.0,0.0,0.5307737,1.3950553,0.0,0.0,1.3554169,1.1158177,0.0,0.0,1.0673914,783.69965,805.05493,770.0,724.0659,871.9414,0.0,0.0,-0.12408447265625,0.0823974609375,0.930419921875,1.016845703125,-5.181427001953125,1.861724853515625,1,1.0,1.0,1.0,1.0,15.00
2021-07-27 00:55:29.568,0.59275144,0.0,0.0,0.52987534,0.6448198,0.0,0.0,0.3419647,1.2227682,0.0,0.0,0.5307737,1.3990943,0.0,0.0,1.3554169,1.1022367,0.0,0.0,1.0673914,802.23444,778.86444,813.5165,752.674,854.61536,0.0,0.0,-0.12408447265625,0.0823974609375,0.930419921875,1.016845703125,-5.181427001953125,1.861724853515625,1,1.0,1.0,1.0,1.0,15.00
2021-07-27 00:55:29.615,0.59275144,0.0,0.0,0.52987534,0.6448198,0.0,0.0,0.3419647,1.2227682,0.0,0.0,0.5307737,1.3990943,0.0,0.0,1.3554169,1.1022367,0.0,0.0,1.0673914,817.9487,756.30035,848.5714,862.27106,827.619,0.0,0.0,-0.11785888671875,0.06451416015625,0.968505859375,2.85614013671875,-10.75164794921875,5.45806884765625,1,1.0,1.0,1.0,1.0,15.00
2021-07-27 00:55:29.616,0.59275144,0.0,0.0,0.52987534,0.6448198,0.0,0.0,0.3419647,1.2227682,0.0,0.0,0.5307737,1.3990943,0.0,0.0,1.3554169,1.1022367,0.0,0.0,1.0673914,815.5311,779.2674,819.15753,884.43225,806.6667,0.0,0.0,-0.11785888671875,0.06451416015625,0.968505859375,2.85614013671875,-10.75164794921875,5.45806884765625,1,1.0,1.0,1.0,1.0,15.00
2021-07-27 00:55:29.617,0.59275144,0.0,0.0,0.52987534,0.6448198,0.0,0.0,0.3419647,1.2227682,0.0,0.0,0.5307737,1.3990943,0.0,0.0,1.3554169,1.1022367,0.0,0.0,1.0673914,771.2088,811.50183,786.1172,775.64105,773.6264,0.0,0.0,-0.11785888671875,0.06451416015625,0.968505859375,2.85614013671875,-10.75164794921875,5.45806884765625,1,1.0,1.0,1.0,1.0,15.00
2021-07-27 00:55:29.618,0.59275144,0.0,0.0,0.52987534,0.6448198,0.0,0.0,0.3419647,1.2227682,0.0,0.0,0.5307737,1.3990943,0.0,0.0,1.3554169,1.1022367,0.0,0.0,1.0673914,785.7143,807.8755,812.3077,737.3626,704.3223,0.0,0.0,-0.11785888671875,0.06451416015625,0.968505859375,2.85614013671875,-10.75164794921875,5.45806884765625,1,1.0,1.0,1.0,1.0,15.00
2021-07-27 00:55:29.619,0.59275144,0.0,0.0,0.52987534,0.6448198,0.0,0.0,0.3419647,1.2227682,0.0,0.0,0.5307737,1.3990943,0.0,0.0,1.3554169,1.1022367,0.0,0.0,1.0673914,814.7253,811.9048,820.7692,770.0,702.71063,0.0,0.0,-0.11785888671875,0.06451416015625,0.968505859375,2.85614013671875,-10.75164794921875,5.45806884765625,1,1.0,1.0,1.0,1.0,15.00
2021-07-27 00:55:29.619,0.59275144,0.0,0.0,0.52987534,0.6448198,0.0,0.0,0.3419647,1.2227682,0.0,0.0,0.5307737,1.3990943,0.0,0.0,1.3554169,1.1022367,0.0,0.0,1.0673914,796.5934,790.14655,771.2088,826.4103,794.17584,0.0,0.0,-0.11785888671875,0.06451416015625,0.968505859375,2.85614013671875,-10.75164794921875,5.45806884765625,1,1.0,1.0,1.0,1.0,15.00
2021-07-27 00:55:29.620,0.59275144,0.0,0.0,0.52987534,0.6448198,0.0,0.0,0.3419647,1.2227682,0.0,0.0,0.5307737,1.3990943,0.0,0.0,1.3554169,1.1022367,0.0,0.0,1.0673914,796.1905,782.0879,741.39197,846.55676,844.94507,0.0,0.0,-0.11785888671875,0.06451416015625,0.968505859375,2.85614013671875,-10.75164794921875,5.45806884765625,1,1.0,1.0,1.0,1.0,15.00
2021-07-27 00:55:29.620,0.59275144,0.0,0.0,0.52987534,0.6448198,0.0,0.0,0.3419647,1.2227682,0.0,0.0,0.5307737,1.3990943,0.0,0.0,1.3554169,1.1022367,0.0,0.0,1.0673914,789.7436,800.6227,769.59705,777.6557,796.1905,0.0,0.0,-0.11785888671875,0.06451416015625,0.968505859375,2.85614013671875,-10.75164794921875,5.45806884765625,1,1.0,1.0,1.0,1.0,15.00
2021-07-27 00:55:29.621,0.59275144,0.0,0.0,0.52987534,0.6448198,0.0,0.0,0.3419647,1.2227682,0.0,0.0,0.5307737,1.3990943,0.0,0.0,1.3554169,1.1022367,0.0,0.0,1.0673914,792.96704,782.49084,811.50183,728.0952,705.5311,0.0,0.0,-0.11785888671875,0.06451416015625,0.968505859375,2.85614013671875,-10.75164794921875,5.45806884765625,1,1.0,1.0,1.0,1.0,15.00
2021-07-27 00:55:29.622,0.59275144,0.0,0.0,0.52987534,0.6448198,0.0,0.0,0.3419647,1.2227682,0.0,0.0,0.5307737,1.3990943,0.0,0.0,1.3554169,1.1022367,0.0,0.0,1.0673914,839.707,791.3553,829.6337,764.35895,675.31134,0.0,0.0,-0.11785888671875,0.06451416015625,0.968505859375,2.85614013671875,-10.75164794921875,5.45806884765625,1,1.0,1.0,1.0,1.0,15.00
2021-07-27 00:55:29.622,0.59275144,0.0,0.0,0.52987534,0.6448198,0.0,0.0,0.3419647,1.2227682,0.0,0.0,0.5307737,1.3990943,0.0,0.0,1.3554169,1.1022367,0.0,0.0,1.0673914,826.4103,774.0293,837.28937,810.293,709.9634,0.0,0.0,-0.11785888671875,0.06451416015625,0.968505859375,2.85614013671875,-10.75164794921875,5.45806884765625,1,1.0,1.0,1.0,1.0,15.00
2021-07-27 00:55:29.623,0.59275144,0.0,0.0,0.52987534,0.6448198,0.0,0.0,0.3419647,1.2227682,0.0,0.0,0.5307737,1.3990943,0.0,0.0,1.3554169,1.1022367,0.0,0.0,1.0673914,794.17584,786.52014,818.3516,832.8571,781.28204,0.0,0.0,-0.11785888671875,0.06451416015625,0.968505859375,2.85614013671875,-10.75164794921875,5.45806884765625,1,1.0,1.0,1.0,1.0,15.00
2021-07-27 00:55:29.654,0.59275144,0.0,0.0,0.52987534,0.6448198,0.0,0.0,0.3419647,1.2227682,0.0,0.0,0.5307737,1.3990943,0.0,0.0,1.3554169,1.1022367,0.0,0.0,1.0673914,793.7729,825.2015,791.75824,792.5641,822.381,0.0,0.0,-0.11480712890625,0.0921630859375,0.963623046875,0.777587890625,-10.116119384765625,9.966583251953125,1,1.0,1.0,1.0,1.0,15.00
2021-07-27 00:55:29.654,0.59275144,0.0,0.0,0.52987534,0.6448198,0.0,0.0,0.3419647,1.2227682,0.0,0.0,0.5307737,1.3990943,0.0,0.0,1.3554169,1.1022367,0.0,0.0,1.0673914,806.26373,821.5751,795.38464,755.4945,761.9414,0.0,0.0,-0.11480712890625,0.0921630859375,0.963623046875,0.777587890625,-10.116119384765625,9.966583251953125,1,1.0,1.0,1.0,1.0,15.00
2021-07-27 00:55:29.655,0.59275144,0.0,0.0,0.52987534,0.6448198,0.0,0.0,0.3419647,1.2227682,0.0,0.0,0.5307737,1.3990943,0.0,0.0,1.3554169,1.1022367,0.0,0.0,1.0673914,812.71063,836.8865,802.23444,757.1062,685.78754,0.0,0.0,-0.11480712890625,0.0921630859375,0.963623046875,0.777587890625,-10.116119384765625,9.966583251953125,1,1.0,1.0,1.0,1.0,15.00
2021-07-27 00:55:29.655,0.59275144,0.0,0.0,0.52987534,0.6448198,0.0,0.0,0.3419647,1.2227682,0.0,0.0,0.5307737,1.3990943,0.0,0.0,1.3554169,1.1022367,0.0,0.0,1.0673914,789.34064,778.46155,772.4176,790.9524,733.3333,0.0,0.0,-0.11480712890625,0.0921630859375,0.963623046875,0.777587890625,-10.116119384765625,9.966583251953125,1,1.0,1.0,1.0,1.0,15.00
2021-07-27 00:55:29.656,0.59275144,0.0,0.0,0.52987534,0.6448198,0.0,0.0,0.3419647,1.2227682,0.0,0.0,0.5307737,1.3990943,0.0,0.0,1.3554169,1.1022367,0.0,0.0,1.0673914,799.41394,716.8132,768.3883,844.94507,773.22345,0.0,0.0,-0.11480712890625,0.0921630859375,0.963623046875,0.777587890625,-10.116119384765625,9.966583251953125,1,1.0,1.0,1.0,1.0,15.00
2021-07-27 00:55:29.656,0.59275144,0.0,0.0,0.52987534,0.6448198,0.0,0.0,0.3419647,1.2227682,0.0,0.0,0.5307737,1.3990943,0.0,0.0,1.3554169,1.1022367,0.0,0.0,1.0673914,813.1135,774.83514,794.57874,819.5604,729.707,0.0,0.0,-0.11480712890625,0.0921630859375,0.963623046875,0.777587890625,-10.116119384765625,9.966583251953125,1,1.0,1.0,1.0,1.0,15.00
2021-07-27 00:55:29.656,0.59275144,0.0,0.0,0.52987534,0.6448198,0.0,0.0,0.3419647,1.2227682,0.0,0.0,0.5307737,1.3990943,0.0,0.0,1.3554169,1.1022367,0.0,0.0,1.0673914,833.2601,792.1612,807.0696,789.7436,724.0659,0.0,0.0,-0.11480712890625,0.0921630859375,0.963623046875,0.777587890625,-10.116119384765625,9.966583251953125,1,1.0,1.0,1.0,1.0,15.00
2021-07-27 00:55:29.656,0.59275144,0.0,0.0,0.52987534,0.6448198,0.0,0.0,0.3419647,1.2227682,0.0,0.0,0.5307737,1.3990943,0.0,0.0,1.3554169,1.1022367,0.0,0.0,1.0673914,826.0073,812.71063,814.7253,767.5824,777.6557,0.0,0.0,-0.11480712890625,0.0921630859375,0.963623046875,0.777587890625,-10.116119384765625,9.966583251953125,1,1.0,1.0,1.0,1.0,15.00
2021-07-27 00:55:29.657,0.59275144,0.0,0.0,0.52987534,0.6448198,0.0,0.0,0.3419647,1.2227682,0.0,0.0,0.5307737,1.3990943,0.0,0.0,1.3554169,1.1022367,0.0,0.0,1.0673914,788.93774,842.52747,826.8132,785.31134,796.99634,0.0,0.0,-0.11480712890625,0.0921630859375,0.963623046875,0.777587890625,-10.116119384765625,9.966583251953125,1,1.0,1.0,1.0,1.0,15.00
2021-07-27 00:55:29.657,0.59275144,0.0,0.0,0.52987534,0.6448198,0.0,0.0,0.3419647,1.2227682,0.0,0.0,0.5307737,1.3990943,0.0,0.0,1.3554169,1.1022367,0.0,0.0,1.0673914,779.2674,835.6777,808.68134,852.6007,873.95605,0.0,0.0,-0.11480712890625,0.0921630859375,0.963623046875,0.777587890625,-10.116119384765625,9.966583251953125,1,1.0,1.0,1.0,1.0,15.00
2021-07-27 00:55:29.657,0.59275144,0.0,0.0,0.52987534,0.6448198,0.0,0.0,0.3419647,1.2227682,0.0,0.0,0.5307737,1.3990943,0.0,0.0,1.3554169,1.1022367,0.0,0.0,1.0673914,779.2674,803.0403,761.53845,825.6044,938.4249,0.0,0.0,-0.11480712890625,0.0921630859375,0.963623046875,0.777587890625,-10.116119384765625,9.966583251953125,1,1.0,1.0,1.0,1.0,15.00
2021-07-27 00:55:29.658,0.59275144,0.0,0.0,0.52987534,0.6448198,0.0,0.0,0.3419647,1.2227682,0.0,0.0,0.5307737,1.3990943,0.0,0.0,1.3554169,1.1022367,0.0,0.0,1.0673914,782.8938,752.27106,764.35895,767.98535,928.7546,0.0,0.0,-0.11480712890625,0.0921630859375,0.963623046875,0.777587890625,-10.116119384765625,9.966583251953125,1,1.0,1.0,1.0,1.0,15.00
2021-07-27 00:55:29.680,0.59275144,0.0,0.0,0.52987534,0.6448198,0.0,0.0,0.3419647,1.2227682,0.0,0.0,0.5307737,1.3990943,0.0,0.0,1.3554169,1.1022367,0.0,0.0,1.0673914,787.72894,763.1502,801.02563,746.63007,948.0952,0.0,0.0,-0.10418701171875,0.1002197265625,0.978271484375,-1.652374267578125,-10.84136962890625,10.131072998046875,1,1.0,1.0,1.0,1.0,15.00
2021-07-27 00:55:29.680,0.62364644,0.0,0.0,0.52987534,0.69687027,0.0,0.0,0.3419647,1.2200816,0.0,0.0,0.5307737,1.4044063,0.0,0.0,1.3554169,1.0827022,0.0,0.0,1.0673914,796.1905,794.9817,819.5604,779.2674,895.31134,0.0,0.0,-0.10418701171875,0.1002197265625,0.978271484375,-1.652374267578125,-10.84136962890625,10.131072998046875,1,1.0,1.0,1.0,1.0,15.00
2021-07-27 00:55:29.683,0.62364644,0.0,0.0,0.52987534,0.69687027,0.0,0.0,0.3419647,1.2200816,0.0,0.0,0.5307737,1.4044063,0.0,0.0,1.3554169,1.0827022,0.0,0.0,1.0673914,806.26373,783.69965,821.978,846.9597,861.4652,0.0,0.0,-0.10418701171875,0.1002197265625,0.978271484375,-1.652374267578125,-10.84136962890625,10.131072998046875,1,1.0,1.0,1.0,1.0,15.00
2021-07-27 00:55:29.683,0.62364644,0.0,0.0,0.52987534,0.69687027,0.0,0.0,0.3419647,1.2200816,0.0,0.0,0.5307737,1.4044063,0.0,0.0,1.3554169,1.0827022,0.0,0.0,1.0673914,807.0696,808.68134,819.15753,840.9158,864.68866,0.0,0.0,-0.10418701171875,0.1002197265625,0.978271484375,-1.652374267578125,-10.84136962890625,10.131072998046875,1,1.0,1.0,1.0,1.0,15.00
2021-07-27 00:55:29.684,0.62364644,0.0,0.0,0.52987534,0.69687027,0.0,0.0,0.3419647,1.2200816,0.0,0.0,0.5307737,1.4044063,0.0,0.0,1.3554169,1.0827022,0.0,0.0,1.0673914,795.78754,852.1978,802.6374,772.01465,774.0293,0.0,0.0,-0.10418701171875,0.1002197265625,0.978271484375,-1.652374267578125,-10.84136962890625,10.131072998046875,1,1.0,1.0,1.0,1.0,15.00
2021-07-27 00:55:29.684,0.62364644,0.0,0.0,0.52987534,0.69687027,0.0,0.0,0.3419647,1.2200816,0.0,0.0,0.5307737,1.4044063,0.0,0.0,1.3554169,1.0827022,0.0,0.0,1.0673914,793.7729,800.2198,785.7143,731.7216,757.50916,0.0,0.0,-0.10418701171875,0.1002197265625,0.978271484375,-1.652374267578125,-10.84136962890625,10.131072998046875,1,1.0,1.0,1.0,1.0,15.00
2021-07-27 00:55:29.684,0.62364644,0.0,0.0,0.52987534,0.69687027,0.0,0.0,0.3419647,1.2200816,0.0,0.0,0.5307737,1.4044063,0.0,0.0,1.3554169,1.0827022,0.0,0.0,1.0673914,828.8278,790.9524,802.23444,790.54944,823.5897,0.0,0.0,-0.10418701171875,0.1002197265625,0.978271484375,-1.652374267578125,-10.84136962890625,10.131072998046875,1,1.0,1.0,1.0,1.0,15.00
2021-07-27 00:55:29.684,0.62364644,0.0,0.0,0.52987534,0.69687027,0.0,0.0,0.3419647,1.2200816,0.0,0.0,0.5307737,1.4044063,0.0,0.0,1.3554169,1.0827022,0.0,0.0,1.0673914,843.73627,781.28204,778.86444,867.50916,820.3663,0.0,0.0,-0.10418701171875,0.1002197265625,0.978271484375,-1.652374267578125,-10.84136962890625,10.131072998046875,1,1.0,1.0,1.0,1.0,15.00
2021-07-27 00:55:29.685,0.62364644,0.0,0.0,0.52987534,0.69687027,0.0,0.0,0.3419647,1.2200816,0.0,0.0,0.5307737,1.4044063,0.0,0.0,1.3554169,1.0827022,0.0,0.0,1.0673914,816.7399,774.83514,774.83514,852.1978,786.9231,0.0,0.0,-0.10418701171875,0.1002197265625,0.978271484375,-1.652374267578125,-10.84136962890625,10.131072998046875,1,1.0,1.0,1.0,1.0,15.00
2021-07-27 00:55:29.685,0.62364644,0.0,0.0,0.52987534,0.69687027,0.0,0.0,0.3419647,1.2200816,0.0,0.0,0.5307737,1.4044063,0.0,0.0,1.3554169,1.0827022,0.0,0.0,1.0673914,821.5751,850.18317,823.9927,798.20514,752.674,0.0,0.0,-0.10418701171875,0.1002197265625,0.978271484375,-1.652374267578125,-10.84136962890625,10.131072998046875,1,1.0,1.0,1.0,1.0,15.00
2021-07-27 00:55:29.685,0.62364644,0.0,0.0,0.52987534,0.69687027,0.0,0.0,0.3419647,1.2200816,0.0,0.0,0.5307737,1.4044063,0.0,0.0,1.3554169,1.0827022,0.0,0.0,1.0673914,805.4579,820.3663,793.7729,749.45056,758.315,0.0,0.0,-0.10418701171875,0.1002197265625,0.978271484375,-1.652374267578125,-10.84136962890625,10.131072998046875,1,1.0,1.0,1.0,1.0,15.00
2021-07-27 00:55:29.686,0.62364644,0.0,0.0,0.52987534,0.69687027,0.0,0.0,0.3419647,1.2200816,0.0,0.0,0.5307737,1.4044063,0.0,0.0,1.3554169,1.0827022,0.0,0.0,1.0673914,804.65204,796.1905,828.4249,788.1319,834.87177,0.0,0.0,-0.10418701171875,0.1002197265625,0.978271484375,-1.652374267578125,-10.84136962890625,10.131072998046875,1,1.0,1.0,1.0,1.0,15.00
2021-07-27 00:55:29.752,0.62364644,0.0,0.0,0.52987534,0.69687027,0.0,0.0,0.3419647,1.2200816,0.0,0.0,0.5307737,1.4044063,0.0,0.0,1.3554169,1.0827022,0.0,0.0,1.0673914,803.0403,792.1612,845.7509,850.58606,821.978,0.0,0.0,-0.08978271484375,0.0982666015625,0.98223876953125,-1.308441162109375,-10.12359619140625,8.38897705078125,1,1.0,1.0,1.0,1.0,15.00
2021-07-27 00:55:29.753,0.62364644,0.0,0.0,0.52987534,0.69687027,0.0,0.0,0.3419647,1.2200816,0.0,0.0,0.5307737,1.4044063,0.0,0.0,1.3554169,1.0827022,0.0,0.0,1.0673914,780.4762,755.89746,793.36993,836.08057,688.60803,0.0,0.0,-0.08978271484375,0.0982666015625,0.98223876953125,-1.308441162109375,-10.12359619140625,8.38897705078125,1,1.0,1.0,1.0,1.0,15.00
2021-07-27 00:55:29.753,0.62364644,0.0,0.0,0.52987534,0.69687027,0.0,0.0,0.3419647,1.2200816,0.0,0.0,0.5307737,1.4044063,0.0,0.0,1.3554169,1.0827022,0.0,0.0,1.0673914,776.8498,777.6557,782.8938,785.7143,680.9524,0.0,0.0,-0.08978271484375,0.0982666015625,0.98223876953125,-1.308441162109375,-10.12359619140625,8.38897705078125,1,1.0,1.0,1.0,1.0,15.00
2021-07-27 00:55:29.753,0.62364644,0.0,0.0,0.52987534,0.69687027,0.0,0.0,0.3419647,1.2200816,0.0,0.0,0.5307737,1.4044063,0.0,0.0,1.3554169,1.0827022,0.0,0.0,1.0673914,824.3956,859.0476,816.337,768.7912,732.1245,0.0,0.0,-0.08978271484375,0.0982666015625,0.98223876953125,-1.308441162109375,-10.12359619140625,8.38897705078125,1,1.0,1.0,1.0,1.0,15.00
2021-07-27 00:55:29.754,0.62364644,0.0,0.0,0.52987534,0.69687027,0.0,0.0,0.3419647,1.2200816,0.0,0.0,0.5307737,1.4044063,0.0,0.0,1.3554169,1.0827022,0.0,0.0,1.0673914,850.989,838.49817,818.7546,796.1905,738.5714,0.0,0.0,-0.08978271484375,0.0982666015625,0.98223876953125,-1.308441162109375,-10.12359619140625,8.38897705078125,1,1.0,1.0,1.0,1.0,15.00
2021-07-27 00:55:29.754,0.62364644,0.0,0.0,0.52987534,0.69687027,0.0,0.0,0.3419647,1.2200816,0.0,0.0,0.5307737,1.4044063,0.0,0.0,1.3554169,1.0827022,0.0,0.0,1.0673914,836.8865,773.6264,802.6374,871.13556,740.989,0.0,0.0,-0.08978271484375,0.0982666015625,0.98223876953125,-1.308441162109375,-10.12359619140625,8.38897705078125,1,1.0,1.0,1.0,1.0,15.00
2021-07-27 00:55:29.754,0.62364644,0.0,0.0,0.52987534,0.69687027,0.0,0.0,0.3419647,1.2200816,0.0,0.0,0.5307737,1.4044063,0.0,0.0,1.3554169,1.0827022,0.0,0.0,1.0673914,805.8608,824.3956,798.60803,868.71796,781.685,0.0,0.0,-0.08978271484375,0.0982666015625,0.98223876953125,-1.308441162109375,-10.12359619140625,8.38897705078125,1,1.0,1.0,1.0,1.0,15.00
2021-07-27 00:55:29.754,0.62364644,0.0,0.0,0.52987534,0.69687027,0.0,0.0,0.3419647,1.2200816,0.0,0.0,0.5307737,1.4044063,0.0,0.0,1.3554169,1.0827022,0.0,0.0,1.0673914,776.4469,836.08057,823.9927,784.10254,843.3333,0.0,0.0,-0.08978271484375,0.0982666015625,0.98223876953125,-1.308441162109375,-10.12359619140625,8.38897705078125,1,1.0,1.0,1.0,1.0,15.00
2021-07-27 00:55:29.755,0.62364644,0.0,0.0,0.52987534,0.69687027,0.0,0.0,0.3419647,1.2200816,0.0,0.0,0.5307737,1.4044063,0.0,0.0,1.3554169,1.0827022,0.0,0.0,1.0673914,782.8938,809.89014,829.2308,745.0183,865.89746,0.0,0.0,-0.08978271484375,0.0982666015625,0.98223876953125,-1.308441162109375,-10.12359619140625,8.38897705078125,1,1.0,1.0,1.0,1.0,15.00
2021-07-27 00:55:29.755,0.62364644,0.0,0.0,0.52987534,0.69687027,0.0,0.0,0.3419647,1.2200816,0.0,0.0,0.5307737,1.4044063,0.0,0.0,1.3554169,1.0827022,0.0,0.0,1.0673914,798.20514,817.9487,813.1135,759.5238,863.0769,0.0,0.0,-0.08978271484375,0.0982666015625,0.98223876953125,-1.308441162109375,-10.12359619140625,8.38897705078125,1,1.0,1.0,1.0,1.0,15.00
2021-07-27 00:55:29.755,0.62364644,0.0,0.0,0.52987534,0.69687027,0.0,0.0,0.3419647,1.2200816,0.0,0.0,0.5307737,1.4044063,0.0,0.0,1.3554169,1.0827022,0.0,0.0,1.0673914,819.5604,809.0842,830.0366,833.663,843.73627,0.0,0.0,-0.08978271484375,0.0982666015625,0.98223876953125,-1.308441162109375,-10.12359619140625,8.38897705078125,1,1.0,1.0,1.0,1.0,15.00
2021-07-27 00:55:29.755,0.62364644,0.0,0.0,0.52987534,0.69687027,0.0,0.0,0.3419647,1.2200816,0.0,0.0,0.5307737,1.4044063,0.0,0.0,1.3554169,1.0827022,0.0,0.0,1.0673914,830.4396,809.0842,816.337,875.56775,877.5824,0.0,0.0,-0.08978271484375,0.0982666015625,0.98223876953125,-1.308441162109375,-10.12359619140625,8.38897705078125,1,1.0,1.0,1.0,1.0,15.00
2021-07-27 00:55:29.814,0.62364644,0.0,0.0,0.52987534,0.69687027,0.0,0.0,0.3419647,1.2200816,0.0,0.0,0.5307737,1.4044063,0.0,0.0,1.3554169,1.0827022,0.0,0.0,1.0673914,805.8608,768.3883,767.5824,806.6667,863.0769,0.0,0.0,-0.08978271484375,0.0982666015625,0.98223876953125,-1.308441162109375,-10.12359619140625,8.38897705078125,1,1.0,1.0,1.0,1.0,15.00
2021-07-27 00:55:29.814,0.62364644,0.0,0.0,0.52987534,0.69687027,0.0,0.0,0.3419647,1.2200816,0.0,0.0,0.5307737,1.4044063,0.0,0.0,1.3554169,1.0827022,0.0,0.0,1.0673914,809.89014,742.6007,757.1062,760.32965,793.7729,0.0,0.0,-0.08978271484375,0.0982666015625,0.98223876953125,-1.308441162109375,-10.12359619140625,8.38897705078125,1,1.0,1.0,1.0,1.0,15.00
2021-07-27 00:55:29.814,0.62364644,0.0,0.0,0.52987534,0.69687027,0.0,0.0,0.3419647,1.2200816,0.0,0.0,0.5307737,1.4044063,0.0,0.0,1.3554169,1.0827022,0.0,0.0,1.0673914,816.337,796.5934,797.8022,764.35895,765.16486,0.0,0.0,-0.08978271484375,0.0982666015625,0.98223876953125,-1.308441162109375,-10.12359619140625,8.38897705078125,1,1.0,1.0,1.0,1.0,15.00
2021-07-27 00:55:29.815,0.62364644,0.0,0.0,0.52987534,0.69687027,0.0,0.0,0.3419647,1.2200816,0.0,0.0,0.5307737,1.4044063,0.0,0.0,1.3554169,1.0827022,0.0,0.0,1.0673914,790.54944,795.78754,824.3956,804.65204,791.3553,0.0,0.0,-0.08978271484375,0.0982666015625,0.98223876953125,-1.308441162109375,-10.12359619140625,8.38897705078125,1,1.0,1.0,1.0,1.0,15.00
2021-07-27 00:55:29.816,0.62364644,0.0,0.0,0.52987534,0.69687027,0.0,0.0,0.3419647,1.2200816,0.0,0.0,0.5307737,1.4044063,0.0,0.0,1.3554169,1.0827022,0.0,0.0,1.0673914,802.6374,810.293,841.7216,855.82416,881.6117,0.0,0.0,-0.08978271484375,0.0982666015625,0.98223876953125,-1.308441162109375,-10.12359619140625,8.38897705078125,1,1.0,1.0,1.0,1.0,15.00
2021-07-27 00:55:29.817,0.62364644,0.0,0.0,0.52987534,0.69687027,0.0,0.0,0.3419647,1.2200816,0.0,0.0,0.5307737,1.4044063,0.0,0.0,1.3554169,1.0827022,0.0,0.0,1.0673914,809.89014,813.1135,814.7253,815.12823,905.78754,0.0,0.0,-0.08978271484375,0.0982666015625,0.98223876953125,-1.308441162109375,-10.12359619140625,8.38897705078125,1,1.0,1.0,1.0,1.0,15.00
2021-07-27 00:55:29.817,0.62364644,0.0,0.0,0.52987534,0.69687027,0.0,0.0,0.3419647,1.2200816,0.0,0.0,0.5307737,1.4044063,0.0,0.0,1.3554169,1.0827022,0.0,0.0,1.0673914,811.9048,807.8755,769.59705,761.53845,861.06226,0.0,0.0,-0.08978271484375,0.0982666015625,0.98223876953125,-1.308441162109375,-10.12359619140625,8.38897705078125,1,1.0,1.0,1.0,1.0,15.00
2021-07-27 00:55:29.817,0.62364644,0.0,0.0,0.52987534,0.69687027,0.0,0.0,0.3419647,1.2200816,0.0,0.0,0.5307737,1.4044063,0.0,0.0,1.3554169,1.0827022,0.0,0.0,1.0673914,803.44324,843.73627,768.3883,765.56775,853.4066,0.0,0.0,-0.08978271484375,0.0982666015625,0.98223876953125,-1.308441162109375,-10.12359619140625,8.38897705078125,1,1.0,1.0,1.0,1.0,15.00
2021-07-27 00:55:29.817,0.62364644,0.0,0.0,0.52987534,0.69687027,0.0,0.0,0.3419647,1.2200816,0.0,0.0,0.5307737,1.4044063,0.0,0.0,1.3554169,1.0827022,0.0,0.0,1.0673914,802.23444,849.3773,786.1172,826.4103,808.68134,0.0,0.0,-0.08978271484375,0.0982666015625,0.98223876953125,-1.308441162109375,-10.12359619140625,8.38897705078125,1,1.0,1.0,1.0,1.0,15.00
2021-07-27 00:55:29.818,0.62364644,0.0,0.0,0.52987534,0.69687027,0.0,0.0,0.3419647,1.2200816,0.0,0.0,0.5307737,1.4044063,0.0,0.0,1.3554169,1.0827022,0.0,0.0,1.0673914,801.8315,799.011,807.47253,861.4652,809.89014,0.0,0.0,-0.08978271484375,0.0982666015625,0.98223876953125,-1.308441162109375,-10.12359619140625,8.38897705078125,1,1.0,1.0,1.0,1.0,15.00
2021-07-27 00:55:29.818,0.62364644,0.0,0.0,0.52987534,0.69687027,0.0,0.0,0.3419647,1.2200816,0.0,0.0,0.5307737,1.4044063,0.0,0.0,1.3554169,1.0827022,0.0,0.0,1.0673914,779.67035,716.0073,832.4542,800.6227,861.06226,0.0,0.0,-0.08978271484375,0.0982666015625,0.98223876953125,-1.308441162109375,-10.12359619140625,8.38897705078125,1,1.0,1.0,1.0,1.0,15.00
2021-07-27 00:55:29.818,0.62364644,0.0,0.0,0.52987534,0.69687027,0.0,0.0,0.3419647,1.2200816,0.0,0.0,0.5307737,1.4044063,0.0,0.0,1.3554169,1.0827022,0.0,0.0,1.0673914,774.83514,735.7509,823.1868,749.85345,834.0659,0.0,0.0,-0.08978271484375,0.0982666015625,0.98223876953125,-1.308441162109375,-10.12359619140625,8.38897705078125,1,1.0,1.0,1.0,1.0,15.00
2021-07-27 00:55:29.849,0.62364644,0.0,0.0,0.52987534,0.69687027,0.0,0.0,0.3419647,1.2200816,0.0,0.0,0.5307737,1.4044063,0.0,0.0,1.3554169,1.0827022,0.0,0.0,1.0673914,811.50183,801.02563,797.8022,768.7912,853.4066,0.0,0.0,-0.08038330078125,0.093994140625,0.99114990234375,0.620574951171875,-9.473114013671875,6.138458251953125,1,1.0,1.0,1.0,1.0,15.00
2021-07-27 00:55:29.850,0.62364644,0.0,0.0,0.52987534,0.69687027,0.0,0.0,0.3419647,1.2200816,0.0,0.0,0.5307737,1.4044063,0.0,0.0,1.3554169,1.0827022,0.0,0.0,1.0673914,816.337,842.1245,787.72894,808.2784,856.63007,0.0,0.0,-0.08038330078125,0.093994140625,0.99114990234375,0.620574951171875,-9.473114013671875,6.138458251953125,1,1.0,1.0,1.0,1.0,15.00
2021-07-27 00:55:29.851,0.62364644,0.0,0.0,0.52987534,0.69687027,0.0,0.0,0.3419647,1.2200816,0.0,0.0,0.5307737,1.4044063,0.0,0.0,1.3554169,1.0827022,0.0,0.0,1.0673914,782.0879,864.2857,809.89014,840.10986,834.4689,0.0,0.0,-0.08038330078125,0.093994140625,0.99114990234375,0.620574951171875,-9.473114013671875,6.138458251953125,1,1.0,1.0,1.0,1.0,15.00
2021-07-27 00:55:29.851,0.62364644,0.0,0.0,0.52987534,0.69687027,0.0,0.0,0.3419647,1.2200816,0.0,0.0,0.5307737,1.4044063,0.0,0.0,1.3554169,1.0827022,0.0,0.0,1.0673914,775.2381,852.1978,806.6667,807.47253,826.0073,0.0,0.0,-0.08038330078125,0.093994140625,0.99114990234375,0.620574951171875,-9.473114013671875,6.138458251953125,1,1.0,1.0,1.0,1.0,15.00
2021-07-27 00:55:29.852,0.62364644,0.0,0.0,0.52987534,0.69687027,0.0,0.0,0.3419647,1.2200816,0.0,0.0,0.5307737,1.4044063,0.0,0.0,1.3554169,1.0827022,0.0,0.0,1.0673914,808.2784,838.0952,793.36993,767.5824,877.1795,0.0,0.0,-0.08038330078125,0.093994140625,0.99114990234375,0.620574951171875,-9.473114013671875,6.138458251953125,1,1.0,1.0,1.0,1.0,15.00
2021-07-27 00:55:29.852,0.62364644,0.0,0.0,0.52987534,0.69687027,0.0,0.0,0.3419647,1.2200816,0.0,0.0,0.5307737,1.4044063,0.0,0.0,1.3554169,1.0827022,0.0,0.0,1.0673914,814.7253,816.7399,807.0696,749.85345,861.06226,0.0,0.0,-0.08038330078125,0.093994140625,0.99114990234375,0.620574951171875,-9.473114013671875,6.138458251953125,1,1.0,1.0,1.0,1.0,15.00
2021-07-27 00:55:29.852,0.62364644,0.0,0.0,0.52987534,0.69687027,0.0,0.0,0.3419647,1.2200816,0.0,0.0,0.5307737,1.4044063,0.0,0.0,1.3554169,1.0827022,0.0,0.0,1.0673914,790.9524,751.8681,792.5641,777.6557,821.978,0.0,0.0,-0.08038330078125,0.093994140625,0.99114990234375,0.620574951171875,-9.473114013671875,6.138458251953125,1,1.0,1.0,1.0,1.0,15.00
2021-07-27 00:55:29.853,0.62364644,0.0,0.0,0.52987534,0.69687027,0.0,0.0,0.3419647,1.2200816,0.0,0.0,0.5307737,1.4044063,0.0,0.0,1.3554169,1.0827022,0.0,0.0,1.0673914,770.0,709.9634,799.41394,817.9487,855.0183,0.0,0.0,-0.08038330078125,0.093994140625,0.99114990234375,0.620574951171875,-9.473114013671875,6.138458251953125,1,1.0,1.0,1.0,1.0,15.00
2021-07-27 00:55:29.853,0.62364644,0.0,0.0,0.52987534,0.69687027,0.0,0.0,0.3419647,1.2200816,0.0,0.0,0.5307737,1.4044063,0.0,0.0,1.3554169,1.0827022,0.0,0.0,1.0673914,769.19415,740.18317,809.89014,788.5348,820.3663,0.0,0.0,-0.08038330078125,0.093994140625,0.99114990234375,0.620574951171875,-9.473114013671875,6.138458251953125,1,1.0,1.0,1.0,1.0,15.00
2021-07-27 00:55:29.853,0.62364644,0.0,0.0,0.52987534,0.69687027,0.0,0.0,0.3419647,1.2200816,0.0,0.0,0.5307737,1.4044063,0.0,0.0,1.3554169,1.0827022,0.0,0.0,1.0673914,810.293,802.23444,794.9817,767.1795,724.87177,0.0,0.0,-0.08038330078125,0.093994140625,0.99114990234375,0.620574951171875,-9.473114013671875,6.138458251953125,1,1.0,1.0,1.0,1.0,15.00
2021-07-27 00:55:29.853,0.62364644,0.0,0.0,0.52987534,0.69687027,0.0,0.0,0.3419647,1.2200816,0.0,0.0,0.5307737,1.4044063,0.0,0.0,1.3554169,1.0827022,0.0,0.0,1.0673914,822.381,861.4652,783.2967,745.82416,722.4542,0.0,0.0,-0.08038330078125,0.093994140625,0.99114990234375,0.620574951171875,-9.473114013671875,6.138458251953125,1,1.0,1.0,1.0,1.0,15.00
2021-07-27 00:55:29.854,0.62364644,0.0,0.0,0.52987534,0.69687027,0.0,0.0,0.3419647,1.2200816,0.0,0.0,0.5307737,1.4044063,0.0,0.0,1.3554169,1.0827022,0.0,0.0,1.0673914,827.2161,884.43225,772.01465,766.3736,753.47986,0.0,0.0,-0.08038330078125,0.093994140625,0.99114990234375,0.620574951171875,-9.473114013671875,6.138458251953125,1,1.0,1.0,1.0,1.0,15.00
2021-07-27 00:55:29.889,0.62364644,0.0,0.0,0.52987534,0.69687027,0.0,0.0,0.3419647,1.2200816,0.0,0.0,0.5307737,1.4044063,0.0,0.0,1.3554169,1.0827022,0.0,0.0,1.0673914,837.28937,853.00366,783.69965,837.6923,673.69965,0.0,0.0,-0.0694580078125,0.0860595703125,0.99530029296875,0.9869384765625,-8.61328125,6.47491455078125,1,1.0,1.0,1.0,1.0,15.00
2021-07-27 00:55:29.890,0.62364644,0.0,0.0,0.52987534,0.69687027,0.0,0.0,0.3419647,1.2200816,0.0,0.0,0.5307737,1.4044063,0.0,0.0,1.3554169,1.0827022,0.0,0.0,1.0673914,798.20514,784.5055,810.696,817.9487,653.1502,0.0,0.0,-0.0694580078125,0.0860595703125,0.99530029296875,0.9869384765625,-8.61328125,6.47491455078125,1,1.0,1.0,1.0,1.0,15.00
2021-07-27 00:55:29.890,0.62364644,0.0,0.0,0.52987534,0.69687027,0.0,0.0,0.3419647,1.2200816,0.0,0.0,0.5307737,1.4044063,0.0,0.0,1.3554169,1.0827022,0.0,0.0,1.0673914,788.5348,730.10986,821.5751,764.7619,697.8755,0.0,0.0,-0.0694580078125,0.0860595703125,0.99530029296875,0.9869384765625,-8.61328125,6.47491455078125,1,1.0,1.0,1.0,1.0,15.00
2021-07-27 00:55:29.891,0.62364644,0.0,0.0,0.52987534,0.69687027,0.0,0.0,0.3419647,1.2200816,0.0,0.0,0.5307737,1.4044063,0.0,0.0,1.3554169,1.0827022,0.0,0.0,1.0673914,784.90845,751.8681,818.7546,744.21246,678.93774,0.0,0.0,-0.0694580078125,0.0860595703125,0.99530029296875,0.9869384765625,-8.61328125,6.47491455078125,1,1.0,1.0,1.0,1.0,15.00
2021-07-27 00:55:29.891,0.62364644,0.0,0.0,0.52987534,0.69687027,0.0,0.0,0.3419647,1.2200816,0.0,0.0,0.5307737,1.4044063,0.0,0.0,1.3554169,1.0827022,0.0,0.0,1.0673914,761.9414,834.0659,797.8022,758.315,695.4579,0.0,0.0,-0.0694580078125,0.0860595703125,0.99530029296875,0.9869384765625,-8.61328125,6.47491455078125,1,1.0,1.0,1.0,1.0,15.00
2021-07-27 00:55:29.892,0.62364644,0.0,0.0,0.52987534,0.69687027,0.0,0.0,0.3419647,1.2200816,0.0,0.0,0.5307737,1.4044063,0.0,0.0,1.3554169,1.0827022,0.0,0.0,1.0673914,777.25275,848.97437,798.20514,824.7985,797.3993,0.0,0.0,-0.0694580078125,0.0860595703125,0.99530029296875,0.9869384765625,-8.61328125,6.47491455078125,1,1.0,1.0,1.0,1.0,15.00
2021-07-27 00:55:29.894,0.62364644,0.0,0.0,0.52987534,0.69687027,0.0,0.0,0.3419647,1.2200816,0.0,0.0,0.5307737,1.4044063,0.0,0.0,1.3554169,1.0827022,0.0,0.0,1.0673914,795.78754,827.619,804.2491,844.94507,750.2564,0.0,0.0,-0.0694580078125,0.0860595703125,0.99530029296875,0.9869384765625,-8.61328125,6.47491455078125,1,1.0,1.0,1.0,1.0,15.00
2021-07-27 00:55:29.895,0.62364644,0.0,0.0,0.52987534,0.69687027,0.0,0.0,0.3419647,1.2200816,0.0,0.0,0.5307737,1.4044063,0.0,0.0,1.3554169,1.0827022,0.0,0.0,1.0673914,782.0879,803.44324,809.4872,781.685,662.4176,0.0,0.0,-0.0694580078125,0.0860595703125,0.99530029296875,0.9869384765625,-8.61328125,6.47491455078125,1,1.0,1.0,1.0,1.0,15.00
2021-07-27 00:55:29.895,0.62364644,0.0,0.0,0.52987534,0.69687027,0.0,0.0,0.3419647,1.2200816,0.0,0.0,0.5307737,1.4044063,0.0,0.0,1.3554169,1.0827022,0.0,0.0,1.0673914,819.9634,825.6044,821.1722,782.0879,755.89746,0.0,0.0,-0.0694580078125,0.0860595703125,0.99530029296875,0.9869384765625,-8.61328125,6.47491455078125,1,1.0,1.0,1.0,1.0,15.00
2021-07-27 00:55:29.895,0.62364644,0.0,0.0,0.52987534,0.69687027,0.0,0.0,0.3419647,1.2200816,0.0,0.0,0.5307737,1.4044063,0.0,0.0,1.3554169,1.0827022,0.0,0.0,1.0673914,857.03296,757.50916,784.5055,817.1429,805.8608,0.0,0.0,-0.0694580078125,0.0860595703125,0.99530029296875,0.9869384765625,-8.61328125,6.47491455078125,1,1.0,1.0,1.0,1.0,15.00
2021-07-27 00:55:29.896,0.62364644,0.0,0.0,0.52987534,0.69687027,0.0,0.0,0.3419647,1.2200816,0.0,0.0,0.5307737,1.4044063,0.0,0.0,1.3554169,1.0827022,0.0,0.0,1.0673914,819.5604,714.7985,788.5348,868.71796,809.89014,0.0,0.0,-0.0694580078125,0.0860595703125,0.99530029296875,0.9869384765625,-8.61328125,6.47491455078125,1,1.0,1.0,1.0,1.0,15.00
2021-07-27 00:55:29.896,0.62364644,0.0,0.0,0.52987534,0.69687027,0.0,0.0,0.3419647,1.2200816,0.0,0.0,0.5307737,1.4044063,0.0,0.0,1.3554169,1.0827022,0.0,0.0,1.0673914,763.95605,805.8608,810.696,851.39197,802.6374,0.0,0.0,-0.0694580078125,0.0860595703125,0.99530029296875,0.9869384765625,-8.61328125,6.47491455078125,1,1.0,1.0,1.0,1.0,15.00
2021-07-27 00:55:29.947,0.62364644,0.0,0.0,0.52987534,0.69687027,0.0,0.0,0.3419647,1.2200816,0.0,0.0,0.5307737,1.4044063,0.0,0.0,1.3554169,1.0827022,0.0,0.0,1.0673914,743.8095,832.4542,784.90845,762.74725,769.19415,0.0,0.0,-0.05572509765625,0.08587646484375,0.99664306640625,-1.60003662109375,-7.574005126953125,6.35528564453125,1,1.0,1.0,1.0,1.0,15.00
2021-07-27 00:55:29.948,0.62364644,0.0,0.0,0.52987534,0.69687027,0.0,0.0,0.3419647,1.2200816,0.0,0.0,0.5307737,1.4044063,0.0,0.0,1.3554169,1.0827022,0.0,0.0,1.0673914,792.96704,840.5128,821.5751,757.1062,789.34064,0.0,0.0,-0.05572509765625,0.08587646484375,0.99664306640625,-1.60003662109375,-7.574005126953125,6.35528564453125,1,1.0,1.0,1.0,1.0,15.00
2021-07-27 00:55:29.948,0.62364644,0.0,0.0,0.52987534,0.69687027,0.0,0.0,0.3419647,1.2200816,0.0,0.0,0.5307737,1.4044063,0.0,0.0,1.3554169,1.0827022,0.0,0.0,1.0673914,798.60803,833.2601,849.7802,768.3883,832.0513,0.0,0.0,-0.05572509765625,0.08587646484375,0.99664306640625,-1.60003662109375,-7.574005126953125,6.35528564453125,1,1.0,1.0,1.0,1.0,15.00
2021-07-27 00:55:29.948,0.62364644,0.0,0.0,0.52987534,0.69687027,0.0,0.0,0.3419647,1.2200816,0.0,0.0,0.5307737,1.4044063,0.0,0.0,1.3554169,1.0827022,0.0,0.0,1.0673914,804.65204,834.0659,827.619,833.2601,816.337,0.0,0.0,-0.05572509765625,0.08587646484375,0.99664306640625,-1.60003662109375,-7.574005126953125,6.35528564453125,1,1.0,1.0,1.0,1.0,15.00
2021-07-27 00:55:29.949,0.62364644,0.0,0.0,0.52987534,0.69687027,0.0,0.0,0.3419647,1.2200816,0.0,0.0,0.5307737,1.4044063,0.0,0.0,1.3554169,1.0827022,0.0,0.0,1.0673914,818.3516,827.619,805.8608,868.315,821.978,0.0,0.0,-0.05572509765625,0.08587646484375,0.99664306640625,-1.60003662109375,-7.574005126953125,6.35528564453125,1,1.0,1.0,1.0,1.0,15.00
2021-07-27 00:55:29.949,0.62364644,0.0,0.0,0.52987534,0.69687027,0.0,0.0,0.3419647,1.2200816,0.0,0.0,0.5307737,1.4044063,0.0,0.0,1.3554169,1.0827022,0.0,0.0,1.0673914,784.5055,759.5238,776.4469,784.5055,819.5604,0.0,0.0,-0.05572509765625,0.08587646484375,0.99664306640625,-1.60003662109375,-7.574005126953125,6.35528564453125,1,1.0,1.0,1.0,1.0,15.00
2021-07-27 00:55:29.949,0.62364644,0.0,0.0,0.52987534,0.69687027,0.0,0.0,0.3419647,1.2200816,0.0,0.0,0.5307737,1.4044063,0.0,0.0,1.3554169,1.0827022,0.0,0.0,1.0673914,802.23444,764.35895,769.59705,757.9121,807.8755,0.0,0.0,-0.05572509765625,0.08587646484375,0.99664306640625,-1.60003662109375,-7.574005126953125,6.35528564453125,1,1.0,1.0,1.0,1.0,15.00
2021-07-27 00:55:29.949,0.62364644,0.0,0.0,0.52987534,0.69687027,0.0,0.0,0.3419647,1.2200816,0.0,0.0,0.5307737,1.4044063,0.0,0.0,1.3554169,1.0827022,0.0,0.0,1.0673914,794.57874,795.78754,774.83514,764.7619,755.09155,0.0,0.0,-0.05572509765625,0.08587646484375,0.99664306640625,-1.60003662109375,-7.574005126953125,6.35528564453125,1,1.0,1.0,1.0,1.0,15.00
2021-07-27 00:55:29.950,0.62364644,0.0,0.0,0.52987534,0.69687027,0.0,0.0,0.3419647,1.2200816,0.0,0.0,0.5307737,1.4044063,0.0,0.0,1.3554169,1.0827022,0.0,0.0,1.0673914,765.9707,792.1612,817.9487,799.41394,771.6117,0.0,0.0,-0.05572509765625,0.08587646484375,0.99664306640625,-1.60003662109375,-7.574005126953125,6.35528564453125,1,1.0,1.0,1.0,1.0,15.00
2021-07-27 00:55:29.950,0.62364644,0.0,0.0,0.52987534,0.69687027,0.0,0.0,0.3419647,1.2200816,0.0,0.0,0.5307737,1.4044063,0.0,0.0,1.3554169,1.0827022,0.0,0.0,1.0673914,768.3883,785.7143,843.3333,830.0366,749.45056,0.0,0.0,-0.05572509765625,0.08587646484375,0.99664306640625,-1.60003662109375,-7.574005126953125,6.35528564453125,1,1.0,1.0,1.0,1.0,15.00
2021-07-27 00:55:29.950,0.62364644,0.0,0.0,0.52987534,0.69687027,0.0,0.0,0.3419647,1.2200816,0.0,0.0,0.5307737,1.4044063,0.0,0.0,1.3554169,1.0827022,0.0,0.0,1.0673914,790.9524,815.9341,834.87177,804.2491,708.3516,0.0,0.0,-0.05572509765625,0.08587646484375,0.99664306640625,-1.60003662109375,-7.574005126953125,6.35528564453125,1,1.0,1.0,1.0,1.0,15.00
2021-07-27 00:55:29.950,0.62364644,0.0,0.0,0.52987534,0.69687027,0.0,0.0,0.3419647,1.2200816,0.0,0.0,0.5307737,1.4044063,0.0,0.0,1.3554169,1.0827022,0.0,0.0,1.0673914,823.1868,857.8388,845.7509,776.04395,689.011,0.0,0.0,-0.05572509765625,0.08587646484375,0.99664306640625,-1.60003662109375,-7.574005126953125,6.35528564453125,1,1.0,1.0,1.0,1.0,15.00
2021-07-27 00:55:29.982,0.62364644,0.0,0.0,0.52987534,0.69687027,0.0,0.0,0.3419647,1.2200816,0.0,0.0,0.5307737,1.4044063,0.0,0.0,1.3554169,1.0827022,0.0,0.0,1.0673914,807.0696,821.978,823.9927,754.2857,743.8095,0.0,0.0,-0.049560546875,0.06292724609375,1.0015869140625,-2.459869384765625,-6.123504638671875,5.301055908203125,1,1.0,1.0,1.0,1.0,15.00
2021-07-27 00:55:29.983,0.62364644,0.0,0.0,0.52987534,0.69687027,0.0,0.0,0.3419647,1.2200816,0.0,0.0,0.5307737,1.4044063,0.0,0.0,1.3554169,1.0827022,0.0,0.0,1.0673914,783.2967,800.6227,775.64105,798.60803,801.4286,0.0,0.0,-0.049560546875,0.06292724609375,1.0015869140625,-2.459869384765625,-6.123504638671875,5.301055908203125,1,1.0,1.0,1.0,1.0,15.00
2021-07-27 00:55:29.983,0.62364644,0.0,0.0,0.52987534,0.69687027,0.0,0.0,0.3419647,1.2200816,0.0,0.0,0.5307737,1.4044063,0.0,0.0,1.3554169,1.0827022,0.0,0.0,1.0673914,787.72894,787.326,775.64105,858.6447,796.1905,0.0,0.0,-0.049560546875,0.06292724609375,1.0015869140625,-2.459869384765625,-6.123504638671875,5.301055908203125,1,1.0,1.0,1.0,1.0,15.00
2021-07-27 00:55:29.984,0.62364644,0.0,0.0,0.52987534,0.69687027,0.0,0.0,0.3419647,1.2200816,0.0,0.0,0.5307737,1.4044063,0.0,0.0,1.3554169,1.0827022,0.0,0.0,1.0673914,783.2967,753.8828,789.7436,811.9048,797.3993,0.0,0.0,-0.049560546875,0.06292724609375,1.0015869140625,-2.459869384765625,-6.123504638671875,5.301055908203125,1,1.0,1.0,1.0,1.0,15.00
2021-07-27 00:55:29.984,0.62364644,0.0,0.0,0.52987534,0.69687027,0.0,0.0,0.3419647,1.2200816,0.0,0.0,0.5307737,1.4044063,0.0,0.0,1.3554169,1.0827022,0.0,0.0,1.0673914,785.7143,779.67035,782.0879,757.1062,851.79486,0.0,0.0,-0.049560546875,0.06292724609375,1.0015869140625,-2.459869384765625,-6.123504638671875,5.301055908203125,1,1.0,1.0,1.0,1.0,15.00
2021-07-27 00:55:29.985,0.62364644,0.0,0.0,0.52987534,0.69687027,0.0,0.0,0.3419647,1.2200816,0.0,0.0,0.5307737,1.4044063,0.0,0.0,1.3554169,1.0827022,0.0,0.0,1.0673914,802.6374,783.69965,781.685,761.13556,846.9597,0.0,0.0,-0.049560546875,0.06292724609375,1.0015869140625,-2.459869384765625,-6.123504638671875,5.301055908203125,1,1.0,1.0,1.0,1.0,15.00
2021-07-27 00:55:29.985,0.62364644,0.0,0.0,0.52987534,0.69687027,0.0,0.0,0.3419647,1.2200816,0.0,0.0,0.5307737,1.4044063,0.0,0.0,1.3554169,1.0827022,0.0,0.0,1.0673914,799.41394,799.81683,828.4249,802.6374,783.69965,0.0,0.0,-0.049560546875,0.06292724609375,1.0015869140625,-2.459869384765625,-6.123504638671875,5.301055908203125,1,1.0,1.0,1.0,1.0,15.00
2021-07-27 00:55:29.986,0.62364644,0.0,0.0,0.52987534,0.69687027,0.0,0.0,0.3419647,1.2200816,0.0,0.0,0.5307737,1.4044063,0.0,0.0,1.3554169,1.0827022,0.0,0.0,1.0673914,803.0403,835.2747,861.4652,859.45056,850.58606,0.0,0.0,-0.049560546875,0.06292724609375,1.0015869140625,-2.459869384765625,-6.123504638671875,5.301055908203125,1,1.0,1.0,1.0,1.0,15.00
2021-07-27 00:55:29.988,0.62364644,0.0,0.0,0.52987534,0.69687027,0.0,0.0,0.3419647,1.2200816,0.0,0.0,0.5307737,1.4044063,0.0,0.0,1.3554169,1.0827022,0.0,0.0,1.0673914,800.6227,834.4689,852.1978,842.9304,855.0183,0.0,0.0,-0.049560546875,0.06292724609375,1.0015869140625,-2.459869384765625,-6.123504638671875,5.301055908203125,1,1.0,1.0,1.0,1.0,15.00
2021-07-27 00:55:29.989,0.62364644,0.0,0.0,0.52987534,0.69687027,0.0,0.0,0.3419647,1.2200816,0.0,0.0,0.5307737,1.4044063,0.0,0.0,1.3554169,1.0827022,0.0,0.0,1.0673914,796.99634,821.1722,786.52014,777.25275,817.9487,0.0,0.0,-0.049560546875,0.06292724609375,1.0015869140625,-2.459869384765625,-6.123504638671875,5.301055908203125,1,1.0,1.0,1.0,1.0,15.00
2021-07-27 00:55:29.989,0.62364644,0.0,0.0,0.52987534,0.69687027,0.0,0.0,0.3419647,1.2200816,0.0,0.0,0.5307737,1.4044063,0.0,0.0,1.3554169,1.0827022,0.0,0.0,1.0673914,796.1905,785.7143,767.98535,751.4652,757.1062,0.0,0.0,-0.049560546875,0.06292724609375,1.0015869140625,-2.459869384765625,-6.123504638671875,5.301055908203125,1,1.0,1.0,1.0,1.0,15.00
2021-07-27 00:55:29.989,0.62364644,0.0,0.0,0.52987534,0.69687027,0.0,0.0,0.3419647,1.2200816,0.0,0.0,0.5307737,1.4044063,0.0,0.0,1.3554169,1.0827022,0.0,0.0,1.0673914,815.9341,775.64105,836.4835,812.3077,707.1429,0.0,0.0,-0.049560546875,0.06292724609375,1.0015869140625,-2.459869384765625,-6.123504638671875,5.301055908203125,1,1.0,1.0,1.0,1.0,15.00
2021-07-27 00:55:30.014,0.62364644,0.0,0.0,0.52987534,0.69687027,0.0,0.0,0.3419647,1.2200816,0.0,0.0,0.5307737,1.4044063,0.0,0.0,1.3554169,1.0827022,0.0,0.0,1.0673914,790.54944,783.69965,820.7692,846.55676,800.2198,0.0,0.0,-0.049560546875,0.06292724609375,1.0015869140625,-2.459869384765625,-6.123504638671875,5.301055908203125,1,1.0,1.0,1.0,1.0,15.00
2021-07-27 00:55:30.014,0.62364644,0.0,0.0,0.52987534,0.69687027,0.0,0.0,0.3419647,1.2200816,0.0,0.0,0.5307737,1.4044063,0.0,0.0,1.3554169,1.0827022,0.0,0.0,1.0673914,751.06226,765.56775,770.80585,794.17584,813.5165,0.0,0.0,-0.049560546875,0.06292724609375,1.0015869140625,-2.459869384765625,-6.123504638671875,5.301055908203125,1,1.0,1.0,1.0,1.0,15.00
2021-07-27 00:55:30.015,0.62364644,0.0,0.0,0.52987534,0.69687027,0.0,0.0,0.3419647,1.2200816,0.0,0.0,0.5307737,1.4044063,0.0,0.0,1.3554169,1.0827022,0.0,0.0,1.0673914,800.6227,817.1429,811.0989,770.80585,772.8205,0.0,0.0,-0.049560546875,0.06292724609375,1.0015869140625,-2.459869384765625,-6.123504638671875,5.301055908203125,1,1.0,1.0,1.0,1.0,15.00
2021-07-27 00:55:30.015,0.62364644,0.0,0.0,0.52987534,0.69687027,0.0,0.0,0.3419647,1.2200816,0.0,0.0,0.5307737,1.4044063,0.0,0.0,1.3554169,1.0827022,0.0,0.0,1.0673914,826.0073,874.7619,817.9487,764.7619,753.0769,0.0,0.0,-0.049560546875,0.06292724609375,1.0015869140625,-2.459869384765625,-6.123504638671875,5.301055908203125,1,1.0,1.0,1.0,1.0,15.00
2021-07-27 00:55:30.016,0.62364644,0.0,0.0,0.52987534,0.69687027,0.0,0.0,0.3419647,1.2200816,0.0,0.0,0.5307737,1.4044063,0.0,0.0,1.3554169,1.0827022,0.0,0.0,1.0673914,801.8315,841.31866,788.5348,768.3883,734.94507,0.0,0.0,-0.049560546875,0.06292724609375,1.0015869140625,-2.459869384765625,-6.123504638671875,5.301055908203125,1,1.0,1.0,1.0,1.0,15.00
2021-07-27 00:55:30.016,0.62364644,0.0,0.0,0.52987534,0.69687027,0.0,0.0,0.3419647,1.2200816,0.0,0.0,0.5307737,1.4044063,0.0,0.0,1.3554169,1.0827022,0.0,0.0,1.0673914,779.67035,799.81683,812.3077,822.381,772.8205,0.0,0.0,-0.049560546875,0.06292724609375,1.0015869140625,-2.459869384765625,-6.123504638671875,5.301055908203125,1,1.0,1.0,1.0,1.0,15.00
2021-07-27 00:55:30.016,0.62364644,0.0,0.0,0.52987534,0.69687027,0.0,0.0,0.3419647,1.2200816,0.0,0.0,0.5307737,1.4044063,0.0,0.0,1.3554169,1.0827022,0.0,0.0,1.0673914,773.22345,786.1172,811.0989,813.5165,814.7253,0.0,0.0,-0.049560546875,0.06292724609375,1.0015869140625,-2.459869384765625,-6.123504638671875,5.301055908203125,1,1.0,1.0,1.0,1.0,15.00
2021-07-27 00:55:30.017,0.62364644,0.0,0.0,0.52987534,0.69687027,0.0,0.0,0.3419647,1.2200816,0.0,0.0,0.5307737,1.4044063,0.0,0.0,1.3554169,1.0827022,0.0,0.0,1.0673914,799.41394,781.28204,805.8608,767.98535,767.98535,0.0,0.0,-0.049560546875,0.06292724609375,1.0015869140625,-2.459869384765625,-6.123504638671875,5.301055908203125,1,1.0,1.0,1.0,1.0,15.00
2021-07-27 00:55:30.017,0.62364644,0.0,0.0,0.52987534,0.69687027,0.0,0.0,0.3419647,1.2200816,0.0,0.0,0.5307737,1.4044063,0.0,0.0,1.3554169,1.0827022,0.0,0.0,1.0673914,814.7253,766.3736,816.337,758.315,770.0,0.0,0.0,-0.049560546875,0.06292724609375,1.0015869140625,-2.459869384765625,-6.123504638671875,5.301055908203125,1,1.0,1.0,1.0,1.0,15.00
2021-07-27 00:55:30.017,0.62364644,0.0,0.0,0.52987534,0.69687027,0.0,0.0,0.3419647,1.2200816,0.0,0.0,0.5307737,1.4044063,0.0,0.0,1.3554169,1.0827022,0.0,0.0,1.0673914,794.57874,787.72894,800.2198,776.4469,822.381,0.0,0.0,-0.049560546875,0.06292724609375,1.0015869140625,-2.459869384765625,-6.123504638671875,5.301055908203125,1,1.0,1.0,1.0,1.0,15.00
2021-07-27 00:55:30.018,0.62364644,0.0,0.0,0.52987534,0.69687027,0.0,0.0,0.3419647,1.2200816,0.0,0.0,0.5307737,1.4044063,0.0,0.0,1.3554169,1.0827022,0.0,0.0,1.0673914,776.8498,802.6374,798.60803,824.3956,872.3443,0.0,0.0,-0.049560546875,0.06292724609375,1.0015869140625,-2.459869384765625,-6.123504638671875,5.301055908203125,1,1.0,1.0,1.0,1.0,15.00
2021-07-27 00:55:30.018,0.62364644,0.0,0.0,0.52987534,0.69687027,0.0,0.0,0.3419647,1.2200816,0.0,0.0,0.5307737,1.4044063,0.0,0.0,1.3554169,1.0827022,0.0,0.0,1.0673914,789.34064,805.8608,814.3223,824.7985,866.7033,0.0,0.0,-0.049560546875,0.06292724609375,1.0015869140625,-2.459869384765625,-6.123504638671875,5.301055908203125,1,1.0,1.0,1.0,1.0,15.00
2021-07-27 00:55:30.099,0.62364644,0.0,0.0,0.52987534,0.69687027,0.0,0.0,0.3419647,1.2200816,0.0,0.0,0.5307737,1.4044063,0.0,0.0,1.3554169,1.0827022,0.0,0.0,1.0673914,806.26373,822.381,813.91943,782.0879,912.6374,0.0,0.0,-0.0469970703125,0.0335693359375,0.9940185546875,-1.069183349609375,-4.844970703125,6.198272705078125,1,1.0,1.0,1.0,1.0,15.00
2021-07-27 00:55:30.100,0.62364644,0.0,0.0,0.52987534,0.69687027,0.0,0.0,0.3419647,1.2200816,0.0,0.0,0.5307737,1.4044063,0.0,0.0,1.3554169,1.0827022,0.0,0.0,1.0673914,815.5311,806.26373,819.15753,761.13556,925.9341,0.0,0.0,-0.0469970703125,0.0335693359375,0.9940185546875,-1.069183349609375,-4.844970703125,6.198272705078125,1,1.0,1.0,1.0,1.0,15.00
2021-07-27 00:55:30.100,0.62364644,0.0,0.0,0.52987534,0.69687027,0.0,0.0,0.3419647,1.2200816,0.0,0.0,0.5307737,1.4044063,0.0,0.0,1.3554169,1.0827022,0.0,0.0,1.0673914,815.9341,788.5348,832.8571,781.28204,807.8755,0.0,0.0,-0.0469970703125,0.0335693359375,0.9940185546875,-1.069183349609375,-4.844970703125,6.198272705078125,1,1.0,1.0,1.0,1.0,15.00
2021-07-27 00:55:30.101,0.62364644,0.0,0.0,0.52987534,0.69687027,0.0,0.0,0.3419647,1.2200816,0.0,0.0,0.5307737,1.4044063,0.0,0.0,1.3554169,1.0827022,0.0,0.0,1.0673914,798.20514,801.4286,839.304,842.9304,820.7692,0.0,0.0,-0.0469970703125,0.0335693359375,0.9940185546875,-1.069183349609375,-4.844970703125,6.198272705078125,1,1.0,1.0,1.0,1.0,15.00
2021-07-27 00:55:30.101,0.62364644,0.0,0.0,0.52987534,0.69687027,0.0,0.0,0.3419647,1.2200816,0.0,0.0,0.5307737,1.4044063,0.0,0.0,1.3554169,1.0827022,0.0,0.0,1.0673914,794.17584,815.5311,795.38464,851.39197,817.1429,0.0,0.0,-0.0469970703125,0.0335693359375,0.9940185546875,-1.069183349609375,-4.844970703125,6.198272705078125,1,1.0,1.0,1.0,1.0,15.00
2021-07-27 00:55:30.102,0.62364644,0.0,0.0,0.52987534,0.69687027,0.0,0.0,0.3419647,1.2200816,0.0,0.0,0.5307737,1.4044063,0.0,0.0,1.3554169,1.0827022,0.0,0.0,1.0673914,808.68134,808.68134,763.5531,815.9341,747.4359,0.0,0.0,-0.0469970703125,0.0335693359375,0.9940185546875,-1.069183349609375,-4.844970703125,6.198272705078125,1,1.0,1.0,1.0,1.0,15.00
2021-07-27 00:55:30.102,0.62364644,0.0,0.0,0.52987534,0.69687027,0.0,0.0,0.3419647,1.2200816,0.0,0.0,0.5307737,1.4044063,0.0,0.0,1.3554169,1.0827022,0.0,0.0,1.0673914,832.0513,793.7729,792.1612,784.90845,811.9048,0.0,0.0,-0.0469970703125,0.0335693359375,0.9940185546875,-1.069183349609375,-4.844970703125,6.198272705078125,1,1.0,1.0,1.0,1.0,15.00
2021-07-27 00:55:30.103,0.62364644,0.0,0.0,0.52987534,0.69687027,0.0,0.0,0.3419647,1.2200816,0.0,0.0,0.5307737,1.4044063,0.0,0.0,1.3554169,1.0827022,0.0,0.0,1.0673914,820.3663,796.1905,815.12823,768.7912,857.03296,0.0,0.0,-0.0469970703125,0.0335693359375,0.9940185546875,-1.069183349609375,-4.844970703125,6.198272705078125,1,1.0,1.0,1.0,1.0,15.00
2021-07-27 00:55:30.103,0.62364644,0.0,0.0,0.52987534,0.69687027,0.0,0.0,0.3419647,1.2200816,0.0,0.0,0.5307737,1.4044063,0.0,0.0,1.3554169,1.0827022,0.0,0.0,1.0673914,790.54944,816.337,810.696,826.0073,823.1868,0.0,0.0,-0.0469970703125,0.0335693359375,0.9940185546875,-1.069183349609375,-4.844970703125,6.198272705078125,1,1.0,1.0,1.0,1.0,15.00
2021-07-27 00:55:30.103,0.62364644,0.0,0.0,0.52987534,0.69687027,0.0,0.0,0.3419647,1.2200816,0.0,0.0,0.5307737,1.4044063,0.0,0.0,1.3554169,1.0827022,0.0,0.0,1.0673914,778.46155,783.69965,793.7729,843.73627,799.41394,0.0,0.0,-0.0469970703125,0.0335693359375,0.9940185546875,-1.069183349609375,-4.844970703125,6.198272705078125,1,1.0,1.0,1.0,1.0,15.00
2021-07-27 00:55:30.106,0.62364644,0.0,0.0,0.52987534,0.69687027,0.0,0.0,0.3419647,1.2200816,0.0,0.0,0.5307737,1.4044063,0.0,0.0,1.3554169,1.0827022,0.0,0.0,1.0673914,798.20514,733.3333,817.1429,794.57874,834.0659,0.0,0.0,-0.0469970703125,0.0335693359375,0.9940185546875,-1.069183349609375,-4.844970703125,6.198272705078125,1,1.0,1.0,1.0,1.0,15.00
2021-07-27 00:55:30.106,0.62364644,0.0,0.0,0.52987534,0.69687027,0.0,0.0,0.3419647,1.2200816,0.0,0.0,0.5307737,1.4044063,0.0,0.0,1.3554169,1.0827022,0.0,0.0,1.0673914,816.337,790.9524,824.3956,763.95605,882.4176,0.0,0.0,-0.0469970703125,0.0335693359375,0.9940185546875,-1.069183349609375,-4.844970703125,6.198272705078125,1,1.0,1.0,1.0,1.0,15.00
2021-07-27 00:55:30.145,0.62364644,0.0,0.0,0.52987534,0.69687027,0.0,0.0,0.3419647,1.2200816,0.0,0.0,0.5307737,1.4044063,0.0,0.0,1.3554169,1.0827022,0.0,0.0,1.0673914,803.44324,850.18317,815.12823,769.19415,855.42126,0.0,0.0,-0.0635986328125,0.0386962890625,0.98333740234375,-0.9271240234375,-2.355194091796875,11.304931640625,1,1.0,1.0,1.0,1.0,15.00
2021-07-27 00:55:30.146,0.62364644,0.0,0.0,0.52987534,0.69687027,0.0,0.0,0.3419647,1.2200816,0.0,0.0,0.5307737,1.4044063,0.0,0.0,1.3554169,1.0827022,0.0,0.0,1.0673914,799.81683,851.39197,811.0989,835.2747,786.1172,0.0,0.0,-0.0635986328125,0.0386962890625,0.98333740234375,-0.9271240234375,-2.355194091796875,11.304931640625,1,1.0,1.0,1.0,1.0,15.00
2021-07-27 00:55:30.146,0.62364644,0.0,0.0,0.52987534,0.69687027,0.0,0.0,0.3419647,1.2200816,0.0,0.0,0.5307737,1.4044063,0.0,0.0,1.3554169,1.0827022,0.0,0.0,1.0673914,785.7143,846.1539,797.8022,853.8095,802.6374,0.0,0.0,-0.0635986328125,0.0386962890625,0.98333740234375,-0.9271240234375,-2.355194091796875,11.304931640625,1,1.0,1.0,1.0,1.0,15.00
2021-07-27 00:55:30.147,0.62364644,0.0,0.0,0.52987534,0.69687027,0.0,0.0,0.3419647,1.2200816,0.0,0.0,0.5307737,1.4044063,0.0,0.0,1.3554169,1.0827022,0.0,0.0,1.0673914,762.3443,808.68134,776.8498,786.1172,900.9524,0.0,0.0,-0.0635986328125,0.0386962890625,0.98333740234375,-0.9271240234375,-2.355194091796875,11.304931640625,1,1.0,1.0,1.0,1.0,15.00
2021-07-27 00:55:30.147,0.62364644,0.0,0.0,0.52987534,0.69687027,0.0,0.0,0.3419647,1.2200816,0.0,0.0,0.5307737,1.4044063,0.0,0.0,1.3554169,1.0827022,0.0,0.0,1.0673914,806.26373,798.20514,795.78754,776.4469,894.5055,0.0,0.0,-0.0635986328125,0.0386962890625,0.98333740234375,-0.9271240234375,-2.355194091796875,11.304931640625,1,1.0,1.0,1.0,1.0,15.00
2021-07-27 00:55:30.147,0.62364644,0.0,0.0,0.52987534,0.69687027,0.0,0.0,0.3419647,1.2200816,0.0,0.0,0.5307737,1.4044063,0.0,0.0,1.3554169,1.0827022,0.0,0.0,1.0673914,827.2161,786.9231,813.91943,779.67035,844.1392,0.0,0.0,-0.0635986328125,0.0386962890625,0.98333740234375,-0.9271240234375,-2.355194091796875,11.304931640625,1,1.0,1.0,1.0,1.0,15.00
2021-07-27 00:55:30.148,0.62364644,0.0,0.0,0.52987534,0.69687027,0.0,0.0,0.3419647,1.2200816,0.0,0.0,0.5307737,1.4044063,0.0,0.0,1.3554169,1.0827022,0.0,0.0,1.0673914,803.8461,774.0293,816.337,814.3223,810.696,0.0,0.0,-0.0635986328125,0.0386962890625,0.98333740234375,-0.9271240234375,-2.355194091796875,11.304931640625,1,1.0,1.0,1.0,1.0,15.00
2021-07-27 00:55:30.148,0.62364644,0.0,0.0,0.52987534,0.69687027,0.0,0.0,0.3419647,1.2200816,0.0,0.0,0.5307737,1.4044063,0.0,0.0,1.3554169,1.0827022,0.0,0.0,1.0673914,808.2784,817.9487,842.52747,861.4652,815.12823,0.0,0.0,-0.0635986328125,0.0386962890625,0.98333740234375,-0.9271240234375,-2.355194091796875,11.304931640625,1,1.0,1.0,1.0,1.0,15.00
2021-07-27 00:55:30.148,0.62364644,0.0,0.0,0.52987534,0.69687027,0.0,0.0,0.3419647,1.2200816,0.0,0.0,0.5307737,1.4044063,0.0,0.0,1.3554169,1.0827022,0.0,0.0,1.0673914,778.0586,819.9634,832.8571,805.4579,792.5641,0.0,0.0,-0.0635986328125,0.0386962890625,0.98333740234375,-0.9271240234375,-2.355194091796875,11.304931640625,1,1.0,1.0,1.0,1.0,15.00
2021-07-27 00:55:30.148,0.62364644,0.0,0.0,0.52987534,0.69687027,0.0,0.0,0.3419647,1.2200816,0.0,0.0,0.5307737,1.4044063,0.0,0.0,1.3554169,1.0827022,0.0,0.0,1.0673914,766.3736,786.52014,811.0989,756.30035,690.6227,0.0,0.0,-0.0635986328125,0.0386962890625,0.98333740234375,-0.9271240234375,-2.355194091796875,11.304931640625,1,1.0,1.0,1.0,1.0,15.00
2021-07-27 00:55:30.149,0.62364644,0.0,0.0,0.52987534,0.69687027,0.0,0.0,0.3419647,1.2200816,0.0,0.0,0.5307737,1.4044063,0.0,0.0,1.3554169,1.0827022,0.0,0.0,1.0673914,804.2491,777.6557,806.26373,767.5824,760.7326,0.0,0.0,-0.0635986328125,0.0386962890625,0.98333740234375,-0.9271240234375,-2.355194091796875,11.304931640625,1,1.0,1.0,1.0,1.0,15.00
2021-07-27 00:55:30.149,0.62364644,0.0,0.0,0.52987534,0.69687027,0.0,0.0,0.3419647,1.2200816,0.0,0.0,0.5307737,1.4044063,0.0,0.0,1.3554169,1.0827022,0.0,0.0,1.0673914,806.6667,803.0403,784.5055,817.9487,786.1172,0.0,0.0,-0.0635986328125,0.0386962890625,0.98333740234375,-0.9271240234375,-2.355194091796875,11.304931640625,1,1.0,1.0,1.0,1.0,15.00
2021-07-27 00:55:30.176,0.62364644,0.0,0.0,0.52987534,0.69687027,0.0,0.0,0.3419647,1.2200816,0.0,0.0,0.5307737,1.4044063,0.0,0.0,1.3554169,1.0827022,0.0,0.0,1.0673914,778.46155,780.07324,761.9414,850.18317,669.67035,0.0,0.0,-0.04400634765625,0.04132080078125,0.97637939453125,-3.641204833984375,-5.2935791015625,11.746063232421875,1,1.0,1.0,1.0,1.0,15.00
2021-07-27 00:55:30.177,0.62364644,0.0,0.0,0.52987534,0.69687027,0.0,0.0,0.3419647,1.2200816,0.0,0.0,0.5307737,1.4044063,0.0,0.0,1.3554169,1.0827022,0.0,0.0,1.0673914,785.7143,760.32965,779.2674,817.5458,699.89014,0.0,0.0,-0.04400634765625,0.04132080078125,0.97637939453125,-3.641204833984375,-5.2935791015625,11.746063232421875,1,1.0,1.0,1.0,1.0,15.00
2021-07-27 00:55:30.177,0.62364644,0.0,0.0,0.52987534,0.69687027,0.0,0.0,0.3419647,1.2200816,0.0,0.0,0.5307737,1.4044063,0.0,0.0,1.3554169,1.0827022,0.0,0.0,1.0673914,838.0952,815.12823,814.7253,797.3993,788.5348,0.0,0.0,-0.04400634765625,0.04132080078125,0.97637939453125,-3.641204833984375,-5.2935791015625,11.746063232421875,1,1.0,1.0,1.0,1.0,15.00
2021-07-27 00:55:30.178,0.62364644,0.0,0.0,0.52987534,0.69687027,0.0,0.0,0.3419647,1.2200816,0.0,0.0,0.5307737,1.4044063,0.0,0.0,1.3554169,1.0827022,0.0,0.0,1.0673914,830.4396,819.15753,813.1135,780.07324,812.71063,0.0,0.0,-0.04400634765625,0.04132080078125,0.97637939453125,-3.641204833984375,-5.2935791015625,11.746063232421875,1,1.0,1.0,1.0,1.0,15.00
2021-07-27 00:55:30.178,0.62364644,0.0,0.0,0.52987534,0.69687027,0.0,0.0,0.3419647,1.2200816,0.0,0.0,0.5307737,1.4044063,0.0,0.0,1.3554169,1.0827022,0.0,0.0,1.0673914,786.9231,832.0513,808.2784,801.4286,791.75824,0.0,0.0,-0.04400634765625,0.04132080078125,0.97637939453125,-3.641204833984375,-5.2935791015625,11.746063232421875,1,1.0,1.0,1.0,1.0,15.00
2021-07-27 00:55:30.178,0.62364644,0.0,0.0,0.52987534,0.69687027,0.0,0.0,0.3419647,1.2200816,0.0,0.0,0.5307737,1.4044063,0.0,0.0,1.3554169,1.0827022,0.0,0.0,1.0673914,792.5641,835.6777,845.34796,863.47986,792.5641,0.0,0.0,-0.04400634765625,0.04132080078125,0.97637939453125,-3.641204833984375,-5.2935791015625,11.746063232421875,1,1.0,1.0,1.0,1.0,15.00
2021-07-27 00:55:30.178,0.62364644,0.0,0.0,0.52987534,0.69687027,0.0,0.0,0.3419647,1.2200816,0.0,0.0,0.5307737,1.4044063,0.0,0.0,1.3554169,1.0827022,0.0,0.0,1.0673914,790.14655,794.57874,828.8278,829.2308,863.8828,0.0,0.0,-0.04400634765625,0.04132080078125,0.97637939453125,-3.641204833984375,-5.2935791015625,11.746063232421875,1,1.0,1.0,1.0,1.0,15.00
2021-07-27 00:55:30.179,0.62364644,0.0,0.0,0.52987534,0.69687027,0.0,0.0,0.3419647,1.2200816,0.0,0.0,0.5307737,1.4044063,0.0,0.0,1.3554169,1.0827022,0.0,0.0,1.0673914,781.28204,798.20514,779.67035,761.9414,811.50183,0.0,0.0,-0.04400634765625,0.04132080078125,0.97637939453125,-3.641204833984375,-5.2935791015625,11.746063232421875,1,1.0,1.0,1.0,1.0,15.00
2021-07-27 00:55:30.179,0.62364644,0.0,0.0,0.52987534,0.69687027,0.0,0.0,0.3419647,1.2200816,0.0,0.0,0.5307737,1.4044063,0.0,0.0,1.3554169,1.0827022,0.0,0.0,1.0673914,785.31134,821.5751,762.74725,755.4945,783.2967,0.0,0.0,-0.04400634765625,0.04132080078125,0.97637939453125,-3.641204833984375,-5.2935791015625,11.746063232421875,1,1.0,1.0,1.0,1.0,15.00
2021-07-27 00:55:30.180,0.62364644,0.0,0.0,0.52987534,0.69687027,0.0,0.0,0.3419647,1.2200816,0.0,0.0,0.5307737,1.4044063,0.0,0.0,1.3554169,1.0827022,0.0,0.0,1.0673914,782.49084,799.81683,775.2381,778.86444,846.9597,0.0,0.0,-0.04400634765625,0.04132080078125,0.97637939453125,-3.641204833984375,-5.2935791015625,11.746063232421875,1,1.0,1.0,1.0,1.0,15.00
2021-07-27 00:55:30.180,0.62364644,0.0,0.0,0.52987534,0.69687027,0.0,0.0,0.3419647,1.2200816,0.0,0.0,0.5307737,1.4044063,0.0,0.0,1.3554169,1.0827022,0.0,0.0,1.0673914,784.10254,760.32965,828.022,836.08057,918.68134,0.0,0.0,-0.04400634765625,0.04132080078125,0.97637939453125,-3.641204833984375,-5.2935791015625,11.746063232421875,1,1.0,1.0,1.0,1.0,15.00
2021-07-27 00:55:30.180,0.62364644,0.0,0.0,0.52987534,0.69687027,0.0,0.0,0.3419647,1.2200816,0.0,0.0,0.5307737,1.4044063,0.0,0.0,1.3554169,1.0827022,0.0,0.0,1.0673914,790.9524,774.0293,826.0073,828.022,943.2601,0.0,0.0,-0.04400634765625,0.04132080078125,0.97637939453125,-3.641204833984375,-5.2935791015625,11.746063232421875,1,1.0,1.0,1.0,1.0,15.00
2021-07-27 00:55:30.210,0.62364644,0.0,0.0,0.52987534,0.69687027,0.0,0.0,0.3419647,1.2200816,0.0,0.0,0.5307737,1.4044063,0.0,0.0,1.3554169,1.0827022,0.0,0.0,1.0673914,811.0989,807.47253,807.8755,786.52014,880.40295,0.0,0.0,-0.03680419921875,0.02410888671875,0.98016357421875,-1.128997802734375,-5.6524658203125,12.03765869140625,1,1.0,1.0,1.0,1.0,15.00
2021-07-27 00:55:30.211,0.62364644,0.0,0.0,0.52987534,0.69687027,0.0,0.0,0.3419647,1.2200816,0.0,0.0,0.5307737,1.4044063,0.0,0.0,1.3554169,1.0827022,0.0,0.0,1.0673914,819.5604,803.8461,812.3077,765.56775,783.69965,0.0,0.0,-0.03680419921875,0.02410888671875,0.98016357421875,-1.128997802734375,-5.6524658203125,12.03765869140625,1,1.0,1.0,1.0,1.0,15.00
2021-07-27 00:55:30.211,0.62364644,0.0,0.0,0.52987534,0.69687027,0.0,0.0,0.3419647,1.2200816,0.0,0.0,0.5307737,1.4044063,0.0,0.0,1.3554169,1.0827022,0.0,0.0,1.0673914,791.3553,794.9817,803.8461,763.95605,845.7509,0.0,0.0,-0.03680419921875,0.02410888671875,0.98016357421875,-1.128997802734375,-5.6524658203125,12.03765869140625,1,1.0,1.0,1.0,1.0,15.00
2021-07-27 00:55:30.212,0.62364644,0.0,0.0,0.52987534,0.69687027,0.0,0.0,0.3419647,1.2200816,0.0,0.0,0.5307737,1.4044063,0.0,0.0,1.3554169,1.0827022,0.0,0.0,1.0673914,786.52014,849.7802,810.696,840.10986,876.77655,0.0,0.0,-0.03680419921875,0.02410888671875,0.98016357421875,-1.128997802734375,-5.6524658203125,12.03765869140625,1,1.0,1.0,1.0,1.0,15.00
2021-07-27 00:55:30.212,0.62364644,0.0,0.0,0.52987534,0.69687027,0.0,0.0,0.3419647,1.2200816,0.0,0.0,0.5307737,1.4044063,0.0,0.0,1.3554169,1.0827022,0.0,0.0,1.0673914,781.685,858.6447,779.67035,831.6484,746.63007,0.0,0.0,-0.03680419921875,0.02410888671875,0.98016357421875,-1.128997802734375,-5.6524658203125,12.03765869140625,1,1.0,1.0,1.0,1.0,15.00
2021-07-27 00:55:30.212,0.62364644,0.0,0.0,0.52987534,0.69687027,0.0,0.0,0.3419647,1.2200816,0.0,0.0,0.5307737,1.4044063,0.0,0.0,1.3554169,1.0827022,0.0,0.0,1.0673914,784.10254,838.0952,777.6557,775.64105,757.1062,0.0,0.0,-0.03680419921875,0.02410888671875,0.98016357421875,-1.128997802734375,-5.6524658203125,12.03765869140625,1,1.0,1.0,1.0,1.0,15.00
2021-07-27 00:55:30.213,0.62364644,0.0,0.0,0.52987534,0.69687027,0.0,0.0,0.3419647,1.2200816,0.0,0.0,0.5307737,1.4044063,0.0,0.0,1.3554169,1.0827022,0.0,0.0,1.0673914,813.1135,772.8205,817.5458,757.1062,803.8461,0.0,0.0,-0.03680419921875,0.02410888671875,0.98016357421875,-1.128997802734375,-5.6524658203125,12.03765869140625,1,1.0,1.0,1.0,1.0,15.00
2021-07-27 00:55:30.213,0.62364644,0.0,0.0,0.52987534,0.69687027,0.0,0.0,0.3419647,1.2200816,0.0,0.0,0.5307737,1.4044063,0.0,0.0,1.3554169,1.0827022,0.0,0.0,1.0673914,822.7839,745.82416,832.0513,780.07324,801.8315,0.0,0.0,-0.03680419921875,0.02410888671875,0.98016357421875,-1.128997802734375,-5.6524658203125,12.03765869140625,1,1.0,1.0,1.0,1.0,15.00
2021-07-27 00:55:30.213,0.62364644,0.0,0.0,0.52987534,0.69687027,0.0,0.0,0.3419647,1.2200816,0.0,0.0,0.5307737,1.4044063,0.0,0.0,1.3554169,1.0827022,0.0,0.0,1.0673914,792.96704,811.0989,792.96704,842.1245,805.8608,0.0,0.0,-0.03680419921875,0.02410888671875,0.98016357421875,-1.128997802734375,-5.6524658203125,12.03765869140625,1,1.0,1.0,1.0,1.0,15.00
2021-07-27 00:55:30.214,0.62364644,0.0,0.0,0.52987534,0.69687027,0.0,0.0,0.3419647,1.2200816,0.0,0.0,0.5307737,1.4044063,0.0,0.0,1.3554169,1.0827022,0.0,0.0,1.0673914,773.22345,834.4689,789.34064,842.9304,843.73627,0.0,0.0,-0.03680419921875,0.02410888671875,0.98016357421875,-1.128997802734375,-5.6524658203125,12.03765869140625,1,1.0,1.0,1.0,1.0,15.00
2021-07-27 00:55:30.214,0.62364644,0.0,0.0,0.52987534,0.69687027,0.0,0.0,0.3419647,1.2200816,0.0,0.0,0.5307737,1.4044063,0.0,0.0,1.3554169,1.0827022,0.0,0.0,1.0673914,793.7729,822.381,824.7985,789.7436,792.5641,0.0,0.0,-0.03680419921875,0.02410888671875,0.98016357421875,-1.128997802734375,-5.6524658203125,12.03765869140625,1,1.0,1.0,1.0,1.0,15.00
2021-07-27 00:55:30.214,0.62364644,0.0,0.0,0.52987534,0.69687027,0.0,0.0,0.3419647,1.2200816,0.0,0.0,0.5307737,1.4044063,0.0,0.0,1.3554169,1.0827022,0.0,0.0,1.0673914,805.05493,830.84247,810.696,755.09155,722.0513,0.0,0.0,-0.03680419921875,0.02410888671875,0.98016357421875,-1.128997802734375,-5.6524658203125,12.03765869140625,1,1.0,1.0,1.0,1.0,15.00
2021-07-27 00:55:30.278,0.62364644,0.0,0.0,0.52987534,0.69687027,0.0,0.0,0.3419647,1.2200816,0.0,0.0,0.5307737,1.4044063,0.0,0.0,1.3554169,1.0827022,0.0,0.0,1.0673914,813.5165,837.6923,807.8755,784.10254,709.15753,0.0,0.0,-0.01873779296875,0.03863525390625,1.00555419921875,1.00189208984375,-6.407623291015625,11.49932861328125,1,1.0,1.0,1.0,1.0,15.00
2021-07-27 00:55:30.279,0.62364644,0.0,0.0,0.52987534,0.69687027,0.0,0.0,0.3419647,1.2200816,0.0,0.0,0.5307737,1.4044063,0.0,0.0,1.3554169,1.0827022,0.0,0.0,1.0673914,807.47253,781.28204,796.5934,849.3773,782.0879,0.0,0.0,-0.01873779296875,0.03863525390625,1.00555419921875,1.00189208984375,-6.407623291015625,11.49932861328125,1,1.0,1.0,1.0,1.0,15.00
2021-07-27 00:55:30.279,0.62364644,0.0,0.0,0.52987534,0.69687027,0.0,0.0,0.3419647,1.2200816,0.0,0.0,0.5307737,1.4044063,0.0,0.0,1.3554169,1.0827022,0.0,0.0,1.0673914,777.6557,726.4835,756.7033,846.1539,819.15753,0.0,0.0,-0.01873779296875,0.03863525390625,1.00555419921875,1.00189208984375,-6.407623291015625,11.49932861328125,1,1.0,1.0,1.0,1.0,15.00
2021-07-27 00:55:30.280,0.62364644,0.0,0.0,0.52987534,0.69687027,0.0,0.0,0.3419647,1.2200816,0.0,0.0,0.5307737,1.4044063,0.0,0.0,1.3554169,1.0827022,0.0,0.0,1.0673914,814.3223,751.06226,800.6227,817.5458,784.90845,0.0,0.0,-0.01873779296875,0.03863525390625,1.00555419921875,1.00189208984375,-6.407623291015625,11.49932861328125,1,1.0,1.0,1.0,1.0,15.00
2021-07-27 00:55:30.280,0.62364644,0.0,0.0,0.52987534,0.69687027,0.0,0.0,0.3419647,1.2200816,0.0,0.0,0.5307737,1.4044063,0.0,0.0,1.3554169,1.0827022,0.0,0.0,1.0673914,834.87177,799.81683,811.0989,784.90845,756.30035,0.0,0.0,-0.01873779296875,0.03863525390625,1.00555419921875,1.00189208984375,-6.407623291015625,11.49932861328125,1,1.0,1.0,1.0,1.0,15.00
2021-07-27 00:55:30.280,0.62364644,0.0,0.0,0.52987534,0.69687027,0.0,0.0,0.3419647,1.2200816,0.0,0.0,0.5307737,1.4044063,0.0,0.0,1.3554169,1.0827022,0.0,0.0,1.0673914,788.5348,838.0952,791.3553,752.27106,823.1868,0.0,0.0,-0.01873779296875,0.03863525390625,1.00555419921875,1.00189208984375,-6.407623291015625,11.49932861328125,1,1.0,1.0,1.0,1.0,15.00
2021-07-27 00:55:30.281,0.62364644,0.0,0.0,0.52987534,0.69687027,0.0,0.0,0.3419647,1.2200816,0.0,0.0,0.5307737,1.4044063,0.0,0.0,1.3554169,1.0827022,0.0,0.0,1.0673914,788.93774,848.5714,823.1868,825.6044,848.1685,0.0,0.0,-0.01873779296875,0.03863525390625,1.00555419921875,1.00189208984375,-6.407623291015625,11.49932861328125,1,1.0,1.0,1.0,1.0,15.00
2021-07-27 00:55:30.281,0.62364644,0.0,0.0,0.52987534,0.69687027,0.0,0.0,0.3419647,1.2200816,0.0,0.0,0.5307737,1.4044063,0.0,0.0,1.3554169,1.0827022,0.0,0.0,1.0673914,802.23444,865.09155,830.0366,867.50916,818.3516,0.0,0.0,-0.01873779296875,0.03863525390625,1.00555419921875,1.00189208984375,-6.407623291015625,11.49932861328125,1,1.0,1.0,1.0,1.0,15.00
2021-07-27 00:55:30.281,0.62364644,0.0,0.0,0.52987534,0.69687027,0.0,0.0,0.3419647,1.2200816,0.0,0.0,0.5307737,1.4044063,0.0,0.0,1.3554169,1.0827022,0.0,0.0,1.0673914,794.9817,846.55676,809.0842,811.9048,753.0769,0.0,0.0,-0.01873779296875,0.03863525390625,1.00555419921875,1.00189208984375,-6.407623291015625,11.49932861328125,1,1.0,1.0,1.0,1.0,15.00
2021-07-27 00:55:30.282,0.62364644,0.0,0.0,0.52987534,0.69687027,0.0,0.0,0.3419647,1.2200816,0.0,0.0,0.5307737,1.4044063,0.0,0.0,1.3554169,1.0827022,0.0,0.0,1.0673914,796.5934,800.2198,814.7253,776.04395,756.7033,0.0,0.0,-0.01873779296875,0.03863525390625,1.00555419921875,1.00189208984375,-6.407623291015625,11.49932861328125,1,1.0,1.0,1.0,1.0,15.00
2021-07-27 00:55:30.282,0.62364644,0.0,0.0,0.52987534,0.69687027,0.0,0.0,0.3419647,1.2200816,0.0,0.0,0.5307737,1.4044063,0.0,0.0,1.3554169,1.0827022,0.0,0.0,1.0673914,806.6667,782.8938,810.696,767.5824,791.75824,0.0,0.0,-0.01873779296875,0.03863525390625,1.00555419921875,1.00189208984375,-6.407623291015625,11.49932861328125,1,1.0,1.0,1.0,1.0,15.00
2021-07-27 00:55:30.282,0.62364644,0.0,0.0,0.52987534,0.69687027,0.0,0.0,0.3419647,1.2200816,0.0,0.0,0.5307737,1.4044063,0.0,0.0,1.3554169,1.0827022,0.0,0.0,1.0673914,805.8608,785.7143,808.2784,820.7692,748.6447,0.0,0.0,-0.01873779296875,0.03863525390625,1.00555419921875,1.00189208984375,-6.407623291015625,11.49932861328125,1,1.0,1.0,1.0,1.0,15.00
2021-07-27 00:55:30.311,0.62364644,0.0,0.0,0.52987534,0.69687027,0.0,0.0,0.3419647,1.2200816,0.0,0.0,0.5307737,1.4044063,0.0,0.0,1.3554169,1.0827022,0.0,0.0,1.0673914,790.54944,796.99634,821.978,861.4652,782.49084,0.0,0.0,-0.01873779296875,0.03863525390625,1.00555419921875,1.00189208984375,-6.407623291015625,11.49932861328125,1,1.0,1.0,1.0,1.0,15.00
2021-07-27 00:55:30.312,0.58676267,0.0,0.0,0.52987534,0.26568618,0.0,0.0,0.3419647,0.55655307,0.0,0.0,0.5307737,1.1681964,0.0,0.0,1.3554169,1.3101363,0.0,0.0,1.0673914,792.1612,761.13556,813.91943,822.7839,842.9304,0.0,0.0,-0.01873779296875,0.03863525390625,1.00555419921875,1.00189208984375,-6.407623291015625,11.49932861328125,1,1.0,1.0,1.0,1.0,15.00
2021-07-27 00:55:30.314,0.58676267,0.0,0.0,0.52987534,0.26568618,0.0,0.0,0.3419647,0.55655307,0.0,0.0,0.5307737,1.1681964,0.0,0.0,1.3554169,1.3101363,0.0,0.0,1.0673914,814.7253,793.7729,795.78754,773.22345,750.65936,0.0,0.0,-0.01873779296875,0.03863525390625,1.00555419921875,1.00189208984375,-6.407623291015625,11.49932861328125,1,1.0,1.0,1.0,1.0,15.00
2021-07-27 00:55:30.315,0.58676267,0.0,0.0,0.52987534,0.26568618,0.0,0.0,0.3419647,0.55655307,0.0,0.0,0.5307737,1.1681964,0.0,0.0,1.3554169,1.3101363,0.0,0.0,1.0673914,825.2015,865.09155,770.0,772.01465,716.0073,0.0,0.0,-0.01873779296875,0.03863525390625,1.00555419921875,1.00189208984375,-6.407623291015625,11.49932861328125,1,1.0,1.0,1.0,1.0,15.00
2021-07-27 00:55:30.315,0.58676267,0.0,0.0,0.52987534,0.26568618,0.0,0.0,0.3419647,0.55655307,0.0,0.0,0.5307737,1.1681964,0.0,0.0,1.3554169,1.3101363,0.0,0.0,1.0673914,819.15753,849.7802,781.685,830.0366,755.89746,0.0,0.0,-0.01873779296875,0.03863525390625,1.00555419921875,1.00189208984375,-6.407623291015625,11.49932861328125,1,1.0,1.0,1.0,1.0,15.00
2021-07-27 00:55:30.315,0.58676267,0.0,0.0,0.52987534,0.26568618,0.0,0.0,0.3419647,0.55655307,0.0,0.0,0.5307737,1.1681964,0.0,0.0,1.3554169,1.3101363,0.0,0.0,1.0673914,804.2491,820.7692,832.0513,876.3736,783.2967,0.0,0.0,-0.01873779296875,0.03863525390625,1.00555419921875,1.00189208984375,-6.407623291015625,11.49932861328125,1,1.0,1.0,1.0,1.0,15.00
2021-07-27 00:55:30.316,0.58676267,0.0,0.0,0.52987534,0.26568618,0.0,0.0,0.3419647,0.55655307,0.0,0.0,0.5307737,1.1681964,0.0,0.0,1.3554169,1.3101363,0.0,0.0,1.0673914,803.0403,818.3516,824.7985,837.28937,867.50916,0.0,0.0,-0.01873779296875,0.03863525390625,1.00555419921875,1.00189208984375,-6.407623291015625,11.49932861328125,1,1.0,1.0,1.0,1.0,15.00
2021-07-27 00:55:30.316,0.58676267,0.0,0.0,0.52987534,0.26568618,0.0,0.0,0.3419647,0.55655307,0.0,0.0,0.5307737,1.1681964,0.0,0.0,1.3554169,1.3101363,0.0,0.0,1.0673914,801.4286,809.89014,801.8315,779.2674,860.65936,0.0,0.0,-0.01873779296875,0.03863525390625,1.00555419921875,1.00189208984375,-6.407623291015625,11.49932861328125,1,1.0,1.0,1.0,1.0,15.00
2021-07-27 00:55:30.316,0.58676267,0.0,0.0,0.52987534,0.26568618,0.0,0.0,0.3419647,0.55655307,0.0,0.0,0.5307737,1.1681964,0.0,0.0,1.3554169,1.3101363,0.0,0.0,1.0673914,811.9048,813.1135,810.696,774.83514,803.0403,0.0,0.0,-0.01873779296875,0.03863525390625,1.00555419921875,1.00189208984375,-6.407623291015625,11.49932861328125,1,1.0,1.0,1.0,1.0,15.00
2021-07-27 00:55:30.317,0.58676267,0.0,0.0,0.52987534,0.26568618,0.0,0.0,0.3419647,0.55655307,0.0,0.0,0.5307737,1.1681964,0.0,0.0,1.3554169,1.3101363,0.0,0.0,1.0673914,813.1135,799.81683,803.44324,811.0989,833.2601,0.0,0.0,-0.01873779296875,0.03863525390625,1.00555419921875,1.00189208984375,-6.407623291015625,11.49932861328125,1,1.0,1.0,1.0,1.0,15.00
2021-07-27 00:55:30.317,0.58676267,0.0,0.0,0.52987534,0.26568618,0.0,0.0,0.3419647,0.55655307,0.0,0.0,0.5307737,1.1681964,0.0,0.0,1.3554169,1.3101363,0.0,0.0,1.0673914,797.3993,792.96704,807.8755,861.8681,893.69965,0.0,0.0,-0.01873779296875,0.03863525390625,1.00555419921875,1.00189208984375,-6.407623291015625,11.49932861328125,1,1.0,1.0,1.0,1.0,15.00
2021-07-27 00:55:30.317,0.58676267,0.0,0.0,0.52987534,0.26568618,0.0,0.0,0.3419647,0.55655307,0.0,0.0,0.5307737,1.1681964,0.0,0.0,1.3554169,1.3101363,0.0,0.0,1.0673914,768.3883,774.0293,792.96704,813.91943,880.40295,0.0,0.0,-0.01873779296875,0.03863525390625,1.00555419921875,1.00189208984375,-6.407623291015625,11.49932861328125,1,1.0,1.0,1.0,1.0,15.00
2021-07-27 00:55:30.354,0.58676267,0.0,0.0,0.52987534,0.26568618,0.0,0.0,0.3419647,0.55655307,0.0,0.0,0.5307737,1.1681964,0.0,0.0,1.3554169,1.3101363,0.0,0.0,1.0673914,804.2491,798.20514,808.2784,770.0,812.71063,0.0,0.0,-0.01507568359375,0.0426025390625,0.99859619140625,2.579498291015625,-4.269256591796875,10.63201904296875,1,1.0,1.0,1.0,1.0,15.00
2021-07-27 00:55:30.355,0.58676267,0.0,0.0,0.52987534,0.26568618,0.0,0.0,0.3419647,0.55655307,0.0,0.0,0.5307737,1.1681964,0.0,0.0,1.3554169,1.3101363,0.0,0.0,1.0673914,835.6777,811.9048,817.1429,780.07324,808.68134,0.0,0.0,-0.01507568359375,0.0426025390625,0.99859619140625,2.579498291015625,-4.269256591796875,10.63201904296875,1,1.0,1.0,1.0,1.0,15.00
2021-07-27 00:55:30.355,0.58676267,0.0,0.0,0.52987534,0.26568618,0.0,0.0,0.3419647,0.55655307,0.0,0.0,0.5307737,1.1681964,0.0,0.0,1.3554169,1.3101363,0.0,0.0,1.0673914,810.293,839.707,828.8278,802.23444,869.12085,0.0,0.0,-0.01507568359375,0.0426025390625,0.99859619140625,2.579498291015625,-4.269256591796875,10.63201904296875,1,1.0,1.0,1.0,1.0,15.00
2021-07-27 00:55:30.355,0.58676267,0.0,0.0,0.52987534,0.26568618,0.0,0.0,0.3419647,0.55655307,0.0,0.0,0.5307737,1.1681964,0.0,0.0,1.3554169,1.3101363,0.0,0.0,1.0673914,798.60803,873.5531,837.6923,852.6007,879.59705,0.0,0.0,-0.01507568359375,0.0426025390625,0.99859619140625,2.579498291015625,-4.269256591796875,10.63201904296875,1,1.0,1.0,1.0,1.0,15.00
2021-07-27 00:55:30.356,0.58676267,0.0,0.0,0.52987534,0.26568618,0.0,0.0,0.3419647,0.55655307,0.0,0.0,0.5307737,1.1681964,0.0,0.0,1.3554169,1.3101363,0.0,0.0,1.0673914,799.41394,824.7985,824.3956,834.87177,871.13556,0.0,0.0,-0.01507568359375,0.0426025390625,0.99859619140625,2.579498291015625,-4.269256591796875,10.63201904296875,1,1.0,1.0,1.0,1.0,15.00
2021-07-27 00:55:30.356,0.58676267,0.0,0.0,0.52987534,0.26568618,0.0,0.0,0.3419647,0.55655307,0.0,0.0,0.5307737,1.1681964,0.0,0.0,1.3554169,1.3101363,0.0,0.0,1.0673914,788.93774,766.77655,798.60803,769.19415,780.07324,0.0,0.0,-0.01507568359375,0.0426025390625,0.99859619140625,2.579498291015625,-4.269256591796875,10.63201904296875,1,1.0,1.0,1.0,1.0,15.00
2021-07-27 00:55:30.356,0.58676267,0.0,0.0,0.52987534,0.26568618,0.0,0.0,0.3419647,0.55655307,0.0,0.0,0.5307737,1.1681964,0.0,0.0,1.3554169,1.3101363,0.0,0.0,1.0673914,804.65204,773.6264,781.28204,757.50916,739.3773,0.0,0.0,-0.01507568359375,0.0426025390625,0.99859619140625,2.579498291015625,-4.269256591796875,10.63201904296875,1,1.0,1.0,1.0,1.0,15.00
2021-07-27 00:55:30.356,0.58676267,0.0,0.0,0.52987534,0.26568618,0.0,0.0,0.3419647,0.55655307,0.0,0.0,0.5307737,1.1681964,0.0,0.0,1.3554169,1.3101363,0.0,0.0,1.0673914,794.57874,821.1722,798.60803,797.3993,752.27106,0.0,0.0,-0.01507568359375,0.0426025390625,0.99859619140625,2.579498291015625,-4.269256591796875,10.63201904296875,1,1.0,1.0,1.0,1.0,15.00
2021-07-27 00:55:30.357,0.58676267,0.0,0.0,0.52987534,0.26568618,0.0,0.0,0.3419647,0.55655307,0.0,0.0,0.5307737,1.1681964,0.0,0.0,1.3554169,1.3101363,0.0,0.0,1.0673914,767.1795,837.28937,809.89014,836.4835,784.90845,0.0,0.0,-0.01507568359375,0.0426025390625,0.99859619140625,2.579498291015625,-4.269256591796875,10.63201904296875,1,1.0,1.0,1.0,1.0,15.00
2021-07-27 00:55:30.357,0.58676267,0.0,0.0,0.52987534,0.26568618,0.0,0.0,0.3419647,0.55655307,0.0,0.0,0.5307737,1.1681964,0.0,0.0,1.3554169,1.3101363,0.0,0.0,1.0673914,774.43225,834.87177,801.4286,820.7692,832.8571,0.0,0.0,-0.01507568359375,0.0426025390625,0.99859619140625,2.579498291015625,-4.269256591796875,10.63201904296875,1,1.0,1.0,1.0,1.0,15.00
2021-07-27 00:55:30.357,0.58676267,0.0,0.0,0.52987534,0.26568618,0.0,0.0,0.3419647,0.55655307,0.0,0.0,0.5307737,1.1681964,0.0,0.0,1.3554169,1.3101363,0.0,0.0,1.0673914,795.38464,808.2784,811.9048,783.69965,822.381,0.0,0.0,-0.01507568359375,0.0426025390625,0.99859619140625,2.579498291015625,-4.269256591796875,10.63201904296875,1,1.0,1.0,1.0,1.0,15.00
2021-07-27 00:55:30.357,0.58676267,0.0,0.0,0.52987534,0.26568618,0.0,0.0,0.3419647,0.55655307,0.0,0.0,0.5307737,1.1681964,0.0,0.0,1.3554169,1.3101363,0.0,0.0,1.0673914,819.9634,801.02563,801.02563,770.0,766.77655,0.0,0.0,-0.01507568359375,0.0426025390625,0.99859619140625,2.579498291015625,-4.269256591796875,10.63201904296875,1,1.0,1.0,1.0,1.0,15.00
2021-07-27 00:55:30.443,0.58676267,0.0,0.0,0.52987534,0.26568618,0.0,0.0,0.3419647,0.55655307,0.0,0.0,0.5307737,1.1681964,0.0,0.0,1.3554169,1.3101363,0.0,0.0,1.0673914,819.9634,804.65204,814.7253,790.54944,734.94507,0.0,0.0,-0.0174560546875,0.041259765625,0.99285888671875,2.265472412109375,-4.7552490234375,9.817047119140625,1,1.0,1.0,1.0,1.0,15.00
2021-07-27 00:55:30.444,0.58676267,0.0,0.0,0.52987534,0.26568618,0.0,0.0,0.3419647,0.55655307,0.0,0.0,0.5307737,1.1681964,0.0,0.0,1.3554169,1.3101363,0.0,0.0,1.0673914,817.5458,822.7839,845.7509,857.8388,737.3626,0.0,0.0,-0.0174560546875,0.041259765625,0.99285888671875,2.265472412109375,-4.7552490234375,9.817047119140625,1,1.0,1.0,1.0,1.0,15.00
2021-07-27 00:55:30.444,0.58676267,0.0,0.0,0.52987534,0.26568618,0.0,0.0,0.3419647,0.55655307,0.0,0.0,0.5307737,1.1681964,0.0,0.0,1.3554169,1.3101363,0.0,0.0,1.0673914,794.17584,832.8571,810.293,858.6447,750.2564,0.0,0.0,-0.0174560546875,0.041259765625,0.99285888671875,2.265472412109375,-4.7552490234375,9.817047119140625,1,1.0,1.0,1.0,1.0,15.00
2021-07-27 00:55:30.445,0.5840133,0.0,0.0,0.7587408,0.22122103,0.0,0.0,0.6132751,0.55655307,0.0,0.0,0.9098743,1.1557549,0.0,0.0,0.7623362,1.3290137,0.0,0.0,0.9853778,764.7619,780.07324,780.87915,776.4469,791.3553,0.0,0.0,-0.0174560546875,0.041259765625,0.99285888671875,2.265472412109375,-4.7552490234375,9.817047119140625,1,1.0,1.0,1.0,1.0,15.00
2021-07-27 00:55:30.447,0.5840133,0.0,0.0,0.7587408,0.22122103,0.0,0.0,0.6132751,0.55655307,0.0,0.0,0.9098743,1.1557549,0.0,0.0,0.7623362,1.3290137,0.0,0.0,0.9853778,805.4579,772.4176,782.8938,758.71796,747.03296,0.0,0.0,-0.0174560546875,0.041259765625,0.99285888671875,2.265472412109375,-4.7552490234375,9.817047119140625,1,1.0,1.0,1.0,1.0,15.00
2021-07-27 00:55:30.447,0.5840133,0.0,0.0,0.7587408,0.22122103,0.0,0.0,0.6132751,0.55655307,0.0,0.0,0.9098743,1.1557549,0.0,0.0,0.7623362,1.3290137,0.0,0.0,0.9853778,801.4286,790.54944,738.97437,759.92676,734.5421,0.0,0.0,-0.0174560546875,0.041259765625,0.99285888671875,2.265472412109375,-4.7552490234375,9.817047119140625,1,1.0,1.0,1.0,1.0,15.00
2021-07-27 00:55:30.448,0.5840133,0.0,0.0,0.7587408,0.22122103,0.0,0.0,0.6132751,0.55655307,0.0,0.0,0.9098743,1.1557549,0.0,0.0,0.7623362,1.3290137,0.0,0.0,0.9853778,778.86444,829.2308,785.7143,825.6044,851.39197,0.0,0.0,-0.0174560546875,0.041259765625,0.99285888671875,2.265472412109375,-4.7552490234375,9.817047119140625,1,1.0,1.0,1.0,1.0,15.00
2021-07-27 00:55:30.448,0.5840133,0.0,0.0,0.7587408,0.22122103,0.0,0.0,0.6132751,0.55655307,0.0,0.0,0.9098743,1.1557549,0.0,0.0,0.7623362,1.3290137,0.0,0.0,0.9853778,797.8022,874.35895,851.39197,877.5824,901.3553,0.0,0.0,-0.0174560546875,0.041259765625,0.99285888671875,2.265472412109375,-4.7552490234375,9.817047119140625,1,1.0,1.0,1.0,1.0,15.00
2021-07-27 00:55:30.448,0.5840133,0.0,0.0,0.7587408,0.22122103,0.0,0.0,0.6132751,0.55655307,0.0,0.0,0.9098743,1.1557549,0.0,0.0,0.7623362,1.3290137,0.0,0.0,0.9853778,790.14655,829.2308,832.8571,796.1905,902.5641,0.0,0.0,-0.0174560546875,0.041259765625,0.99285888671875,2.265472412109375,-4.7552490234375,9.817047119140625,1,1.0,1.0,1.0,1.0,15.00
2021-07-27 00:55:30.448,0.5840133,0.0,0.0,0.7587408,0.22122103,0.0,0.0,0.6132751,0.55655307,0.0,0.0,0.9098743,1.1557549,0.0,0.0,0.7623362,1.3290137,0.0,0.0,0.9853778,802.23444,812.71063,836.8865,758.71796,827.2161,0.0,0.0,-0.0174560546875,0.041259765625,0.99285888671875,2.265472412109375,-4.7552490234375,9.817047119140625,1,1.0,1.0,1.0,1.0,15.00
2021-07-27 00:55:30.449,0.5840133,0.0,0.0,0.7587408,0.22122103,0.0,0.0,0.6132751,0.55655307,0.0,0.0,0.9098743,1.1557549,0.0,0.0,0.7623362,1.3290137,0.0,0.0,0.9853778,815.5311,804.2491,834.87177,780.4762,809.89014,0.0,0.0,-0.0174560546875,0.041259765625,0.99285888671875,2.265472412109375,-4.7552490234375,9.817047119140625,1,1.0,1.0,1.0,1.0,15.00
2021-07-27 00:55:30.449,0.5840133,0.0,0.0,0.7587408,0.22122103,0.0,0.0,0.6132751,0.55655307,0.0,0.0,0.9098743,1.1557549,0.0,0.0,0.7623362,1.3290137,0.0,0.0,0.9853778,776.04395,779.2674,794.57874,823.9927,830.84247,0.0,0.0,-0.0174560546875,0.041259765625,0.99285888671875,2.265472412109375,-4.7552490234375,9.817047119140625,1,1.0,1.0,1.0,1.0,15.00
2021-07-27 00:55:30.477,0.5840133,0.0,0.0,0.7587408,0.22122103,0.0,0.0,0.6132751,0.55655307,0.0,0.0,0.9098743,1.1557549,0.0,0.0,0.7623362,1.3290137,0.0,0.0,0.9853778,790.14655,790.9524,786.9231,848.1685,833.663,0.0,0.0,-0.02374267578125,0.04248046875,0.9906005859375,2.953338623046875,-4.179534912109375,9.2413330078125,1,1.0,1.0,1.0,1.0,15.00
2021-07-27 00:55:30.478,0.5840133,0.0,0.0,0.7587408,0.22122103,0.0,0.0,0.6132751,0.55655307,0.0,0.0,0.9098743,1.1557549,0.0,0.0,0.7623362,1.3290137,0.0,0.0,0.9853778,800.2198,788.93774,796.5934,798.60803,805.4579,0.0,0.0,-0.02374267578125,0.04248046875,0.9906005859375,2.953338623046875,-4.179534912109375,9.2413330078125,1,1.0,1.0,1.0,1.0,15.00
2021-07-27 00:55:30.478,0.5840133,0.0,0.0,0.7587408,0.22122103,0.0,0.0,0.6132751,0.55655307,0.0,0.0,0.9098743,1.1557549,0.0,0.0,0.7623362,1.3290137,0.0,0.0,0.9853778,800.6227,828.022,788.93774,756.7033,725.6777,0.0,0.0,-0.02374267578125,0.04248046875,0.9906005859375,2.953338623046875,-4.179534912109375,9.2413330078125,1,1.0,1.0,1.0,1.0,15.00
2021-07-27 00:55:30.479,0.5840133,0.0,0.0,0.7587408,0.22122103,0.0,0.0,0.6132751,0.55655307,0.0,0.0,0.9098743,1.1557549,0.0,0.0,0.7623362,1.3290137,0.0,0.0,0.9853778,828.8278,846.1539,801.02563,760.7326,741.79486,0.0,0.0,-0.02374267578125,0.04248046875,0.9906005859375,2.953338623046875,-4.179534912109375,9.2413330078125,1,1.0,1.0,1.0,1.0,15.00
2021-07-27 00:55:30.479,0.5840133,0.0,0.0,0.7587408,0.22122103,0.0,0.0,0.6132751,0.55655307,0.0,0.0,0.9098743,1.1557549,0.0,0.0,0.7623362,1.3290137,0.0,0.0,0.9853778,815.12823,819.9634,826.0073,813.1135,800.2198,0.0,0.0,-0.02374267578125,0.04248046875,0.9906005859375,2.953338623046875,-4.179534912109375,9.2413330078125,1,1.0,1.0,1.0,1.0,15.00
2021-07-27 00:55:30.480,0.5840133,0.0,0.0,0.7587408,0.22122103,0.0,0.0,0.6132751,0.55655307,0.0,0.0,0.9098743,1.1557549,0.0,0.0,0.7623362,1.3290137,0.0,0.0,0.9853778,793.36993,825.2015,811.0989,845.34796,699.89014,0.0,0.0,-0.02374267578125,0.04248046875,0.9906005859375,2.953338623046875,-4.179534912109375,9.2413330078125,1,1.0,1.0,1.0,1.0,15.00
2021-07-27 00:55:30.480,0.5840133,0.0,0.0,0.7587408,0.22122103,0.0,0.0,0.6132751,0.55655307,0.0,0.0,0.9098743,1.1557549,0.0,0.0,0.7623362,1.3290137,0.0,0.0,0.9853778,819.9634,837.28937,804.2491,828.022,660.40295,0.0,0.0,-0.02374267578125,0.04248046875,0.9906005859375,2.953338623046875,-4.179534912109375,9.2413330078125,1,1.0,1.0,1.0,1.0,15.00
2021-07-27 00:55:30.480,0.5840133,0.0,0.0,0.7587408,0.22122103,0.0,0.0,0.6132751,0.55655307,0.0,0.0,0.9098743,1.1557549,0.0,0.0,0.7623362,1.3290137,0.0,0.0,0.9853778,830.4396,796.5934,811.9048,784.5055,683.36993,0.0,0.0,-0.02374267578125,0.04248046875,0.9906005859375,2.953338623046875,-4.179534912109375,9.2413330078125,1,1.0,1.0,1.0,1.0,15.00
2021-07-27 00:55:30.481,0.5840133,0.0,0.0,0.7587408,0.22122103,0.0,0.0,0.6132751,0.55655307,0.0,0.0,0.9098743,1.1557549,0.0,0.0,0.7623362,1.3290137,0.0,0.0,0.9853778,813.1135,770.80585,817.9487,774.0293,688.60803,0.0,0.0,-0.02374267578125,0.04248046875,0.9906005859375,2.953338623046875,-4.179534912109375,9.2413330078125,1,1.0,1.0,1.0,1.0,15.00
2021-07-27 00:55:30.481,0.5840133,0.0,0.0,0.7587408,0.22122103,0.0,0.0,0.6132751,0.55655307,0.0,0.0,0.9098743,1.1557549,0.0,0.0,0.7623362,1.3290137,0.0,0.0,0.9853778,768.7912,787.326,816.7399,809.0842,772.8205,0.0,0.0,-0.02374267578125,0.04248046875,0.9906005859375,2.953338623046875,-4.179534912109375,9.2413330078125,1,1.0,1.0,1.0,1.0,15.00
2021-07-27 00:55:30.481,0.5840133,0.0,0.0,0.7587408,0.22122103,0.0,0.0,0.6132751,0.55655307,0.0,0.0,0.9098743,1.1557549,0.0,0.0,0.7623362,1.3290137,0.0,0.0,0.9853778,757.50916,793.7729,804.65204,843.3333,763.95605,0.0,0.0,-0.02374267578125,0.04248046875,0.9906005859375,2.953338623046875,-4.179534912109375,9.2413330078125,1,1.0,1.0,1.0,1.0,15.00
2021-07-27 00:55:30.481,0.5840133,0.0,0.0,0.7587408,0.22122103,0.0,0.0,0.6132751,0.55655307,0.0,0.0,0.9098743,1.1557549,0.0,0.0,0.7623362,1.3290137,0.0,0.0,0.9853778,782.8938,806.6667,804.2491,817.5458,754.2857,0.0,0.0,-0.02374267578125,0.04248046875,0.9906005859375,2.953338623046875,-4.179534912109375,9.2413330078125,1,1.0,1.0,1.0,1.0,15.00
2021-07-27 00:55:30.513,0.5840133,0.0,0.0,0.7587408,0.22122103,0.0,0.0,0.6132751,0.55655307,0.0,0.0,0.9098743,1.1557549,0.0,0.0,0.7623362,1.3290137,0.0,0.0,0.9853778,801.02563,823.5897,799.011,778.46155,743.00366,0.0,0.0,-0.02001953125,0.0592041015625,0.98687744140625,3.81317138671875,-4.8150634765625,8.3441162109375,1,1.0,1.0,1.0,1.0,15.00
2021-07-27 00:55:30.513,0.5840133,0.0,0.0,0.7587408,0.22122103,0.0,0.0,0.6132751,0.55655307,0.0,0.0,0.9098743,1.1557549,0.0,0.0,0.7623362,1.3290137,0.0,0.0,0.9853778,809.0842,855.82416,817.9487,772.8205,778.86444,0.0,0.0,-0.02001953125,0.0592041015625,0.98687744140625,3.81317138671875,-4.8150634765625,8.3441162109375,1,1.0,1.0,1.0,1.0,15.00
2021-07-27 00:55:30.514,0.5840133,0.0,0.0,0.7587408,0.22122103,0.0,0.0,0.6132751,0.55655307,0.0,0.0,0.9098743,1.1557549,0.0,0.0,0.7623362,1.3290137,0.0,0.0,0.9853778,784.90845,840.10986,820.7692,805.4579,832.4542,0.0,0.0,-0.02001953125,0.0592041015625,0.98687744140625,3.81317138671875,-4.8150634765625,8.3441162109375,1,1.0,1.0,1.0,1.0,15.00
2021-07-27 00:55:30.514,0.5840133,0.0,0.0,0.7587408,0.22122103,0.0,0.0,0.6132751,0.55655307,0.0,0.0,0.9098743,1.1557549,0.0,0.0,0.7623362,1.3290137,0.0,0.0,0.9853778,774.43225,799.011,779.2674,862.674,865.4945,0.0,0.0,-0.02001953125,0.0592041015625,0.98687744140625,3.81317138671875,-4.8150634765625,8.3441162109375,1,1.0,1.0,1.0,1.0,15.00
2021-07-27 00:55:30.515,0.5840133,0.0,0.0,0.7587408,0.22122103,0.0,0.0,0.6132751,0.55655307,0.0,0.0,0.9098743,1.1557549,0.0,0.0,0.7623362,1.3290137,0.0,0.0,0.9853778,789.7436,789.7436,799.81683,836.8865,858.24176,0.0,0.0,-0.02001953125,0.0592041015625,0.98687744140625,3.81317138671875,-4.8150634765625,8.3441162109375,1,1.0,1.0,1.0,1.0,15.00
2021-07-27 00:55:30.515,0.5840133,0.0,0.0,0.70188075,0.22122103,0.0,0.0,0.6167215,0.55655307,0.0,0.0,0.92562973,1.1557549,0.0,0.0,0.74346346,1.3290137,0.0,0.0,0.95822936,780.07324,758.315,806.26373,774.83514,813.91943,0.0,0.0,-0.02001953125,0.0592041015625,0.98687744140625,3.81317138671875,-4.8150634765625,8.3441162109375,1,1.0,1.0,1.0,1.0,15.00
2021-07-27 00:55:30.517,0.5840133,0.0,0.0,0.70188075,0.22122103,0.0,0.0,0.6167215,0.55655307,0.0,0.0,0.92562973,1.1557549,0.0,0.0,0.74346346,1.3290137,0.0,0.0,0.95822936,787.326,749.45056,802.6374,754.68866,846.55676,0.0,0.0,-0.02001953125,0.0592041015625,0.98687744140625,3.81317138671875,-4.8150634765625,8.3441162109375,1,1.0,1.0,1.0,1.0,15.00
2021-07-27 00:55:30.518,0.5840133,0.0,0.0,0.70188075,0.22122103,0.0,0.0,0.6167215,0.55655307,0.0,0.0,0.92562973,1.1557549,0.0,0.0,0.74346346,1.3290137,0.0,0.0,0.95822936,795.78754,785.31134,815.5311,784.5055,908.60803,0.0,0.0,-0.02001953125,0.0592041015625,0.98687744140625,3.81317138671875,-4.8150634765625,8.3441162109375,1,1.0,1.0,1.0,1.0,15.00
2021-07-27 00:55:30.518,0.5840133,0.0,0.0,0.70188075,0.22122103,0.0,0.0,0.6167215,0.55655307,0.0,0.0,0.92562973,1.1557549,0.0,0.0,0.74346346,1.3290137,0.0,0.0,0.95822936,776.8498,824.7985,805.8608,840.9158,941.2454,0.0,0.0,-0.02001953125,0.0592041015625,0.98687744140625,3.81317138671875,-4.8150634765625,8.3441162109375,1,1.0,1.0,1.0,1.0,15.00
2021-07-27 00:55:30.519,0.5840133,0.0,0.0,0.70188075,0.22122103,0.0,0.0,0.6167215,0.55655307,0.0,0.0,0.92562973,1.1557549,0.0,0.0,0.74346346,1.3290137,0.0,0.0,0.95822936,782.49084,863.47986,803.0403,838.9011,813.1135,0.0,0.0,-0.02001953125,0.0592041015625,0.98687744140625,3.81317138671875,-4.8150634765625,8.3441162109375,1,1.0,1.0,1.0,1.0,15.00
2021-07-27 00:55:30.519,0.5840133,0.0,0.0,0.70188075,0.22122103,0.0,0.0,0.6167215,0.55655307,0.0,0.0,0.92562973,1.1557549,0.0,0.0,0.74346346,1.3290137,0.0,0.0,0.95822936,790.9524,841.31866,811.0989,784.5055,745.0183,0.0,0.0,-0.02001953125,0.0592041015625,0.98687744140625,3.81317138671875,-4.8150634765625,8.3441162109375,1,1.0,1.0,1.0,1.0,15.00
2021-07-27 00:55:30.519,0.5840133,0.0,0.0,0.70188075,0.22122103,0.0,0.0,0.6167215,0.55655307,0.0,0.0,0.92562973,1.1557549,0.0,0.0,0.74346346,1.3290137,0.0,0.0,0.95822936,813.5165,826.4103,783.69965,782.0879,762.74725,0.0,0.0,-0.02001953125,0.0592041015625,0.98687744140625,3.81317138671875,-4.8150634765625,8.3441162109375,1,1.0,1.0,1.0,1.0,15.00
2021-07-27 00:55:30.556,0.5840133,0.0,0.0,0.70188075,0.22122103,0.0,0.0,0.6167215,0.55655307,0.0,0.0,0.92562973,1.1557549,0.0,0.0,0.74346346,1.3290137,0.0,0.0,0.95822936,837.6923,834.4689,770.0,834.0659,809.4872,0.0,0.0,-0.02001953125,0.0592041015625,0.98687744140625,3.81317138671875,-4.8150634765625,8.3441162109375,1,1.0,1.0,1.0,1.0,15.00
2021-07-27 00:55:30.556,0.5840133,0.0,0.0,0.70188075,0.22122103,0.0,0.0,0.6167215,0.55655307,0.0,0.0,0.92562973,1.1557549,0.0,0.0,0.74346346,1.3290137,0.0,0.0,0.95822936,816.337,809.0842,821.1722,873.95605,832.8571,0.0,0.0,-0.02001953125,0.0592041015625,0.98687744140625,3.81317138671875,-4.8150634765625,8.3441162109375,1,1.0,1.0,1.0,1.0,15.00
2021-07-27 00:55:30.557,0.5840133,0.0,0.0,0.70188075,0.22122103,0.0,0.0,0.6167215,0.55655307,0.0,0.0,0.92562973,1.1557549,0.0,0.0,0.74346346,1.3290137,0.0,0.0,0.95822936,781.28204,751.8681,821.978,840.5128,770.0,0.0,0.0,-0.02001953125,0.0592041015625,0.98687744140625,3.81317138671875,-4.8150634765625,8.3441162109375,1,1.0,1.0,1.0,1.0,15.00
2021-07-27 00:55:30.557,0.5840133,0.0,0.0,0.70188075,0.22122103,0.0,0.0,0.6167215,0.55655307,0.0,0.0,0.92562973,1.1557549,0.0,0.0,0.74346346,1.3290137,0.0,0.0,0.95822936,796.5934,736.9597,799.81683,789.7436,772.4176,0.0,0.0,-0.02001953125,0.0592041015625,0.98687744140625,3.81317138671875,-4.8150634765625,8.3441162109375,1,1.0,1.0,1.0,1.0,15.00
2021-07-27 00:55:30.557,0.5840133,0.0,0.0,0.70188075,0.22122103,0.0,0.0,0.6167215,0.55655307,0.0,0.0,0.92562973,1.1557549,0.0,0.0,0.74346346,1.3290137,0.0,0.0,0.95822936,823.9927,807.0696,803.8461,772.01465,753.0769,0.0,0.0,-0.02001953125,0.0592041015625,0.98687744140625,3.81317138671875,-4.8150634765625,8.3441162109375,1,1.0,1.0,1.0,1.0,15.00
2021-07-27 00:55:30.557,0.5840133,0.0,0.0,0.70188075,0.22122103,0.0,0.0,0.6167215,0.55655307,0.0,0.0,0.92562973,1.1557549,0.0,0.0,0.74346346,1.3290137,0.0,0.0,0.95822936,791.3553,869.5238,826.8132,778.46155,697.47253,0.0,0.0,-0.02001953125,0.0592041015625,0.98687744140625,3.81317138671875,-4.8150634765625,8.3441162109375,1,1.0,1.0,1.0,1.0,15.00
2021-07-27 00:55:30.558,0.5840133,0.0,0.0,0.70188075,0.22122103,0.0,0.0,0.6167215,0.55655307,0.0,0.0,0.92562973,1.1557549,0.0,0.0,0.74346346,1.3290137,0.0,0.0,0.95822936,765.16486,862.674,837.6923,828.022,784.10254,0.0,0.0,-0.02001953125,0.0592041015625,0.98687744140625,3.81317138671875,-4.8150634765625,8.3441162109375,1,1.0,1.0,1.0,1.0,15.00
2021-07-27 00:55:30.558,0.5840133,0.0,0.0,0.70188075,0.22122103,0.0,0.0,0.6167215,0.55655307,0.0,0.0,0.92562973,1.1557549,0.0,0.0,0.74346346,1.3290137,0.0,0.0,0.95822936,767.1795,854.21246,821.1722,814.7253,831.6484,0.0,0.0,-0.02001953125,0.0592041015625,0.98687744140625,3.81317138671875,-4.8150634765625,8.3441162109375,1,1.0,1.0,1.0,1.0,15.00
2021-07-27 00:55:30.558,0.5840133,0.0,0.0,0.70188075,0.22122103,0.0,0.0,0.6167215,0.55655307,0.0,0.0,0.92562973,1.1557549,0.0,0.0,0.74346346,1.3290137,0.0,0.0,0.95822936,780.4762,834.4689,789.34064,761.13556,751.4652,0.0,0.0,-0.02001953125,0.0592041015625,0.98687744140625,3.81317138671875,-4.8150634765625,8.3441162109375,1,1.0,1.0,1.0,1.0,15.00
2021-07-27 00:55:30.558,0.5840133,0.0,0.0,0.70188075,0.22122103,0.0,0.0,0.6167215,0.55655307,0.0,0.0,0.92562973,1.1557549,0.0,0.0,0.74346346,1.3290137,0.0,0.0,0.95822936,822.7839,788.93774,784.90845,771.6117,679.7436,0.0,0.0,-0.02001953125,0.0592041015625,0.98687744140625,3.81317138671875,-4.8150634765625,8.3441162109375,1,1.0,1.0,1.0,1.0,15.00
2021-07-27 00:55:30.559,0.5840133,0.0,0.0,0.70188075,0.22122103,0.0,0.0,0.6167215,0.55655307,0.0,0.0,0.92562973,1.1557549,0.0,0.0,0.74346346,1.3290137,0.0,0.0,0.95822936,846.9597,811.0989,784.90845,817.5458,705.5311,0.0,0.0,-0.02001953125,0.0592041015625,0.98687744140625,3.81317138671875,-4.8150634765625,8.3441162109375,1,1.0,1.0,1.0,1.0,15.00
2021-07-27 00:55:30.559,0.5840133,0.0,0.0,0.70188075,0.22122103,0.0,0.0,0.6167215,0.55655307,0.0,0.0,0.92562973,1.1557549,0.0,0.0,0.74346346,1.3290137,0.0,0.0,0.95822936,815.5311,808.68134,741.79486,845.7509,754.68866,0.0,0.0,-0.02001953125,0.0592041015625,0.98687744140625,3.81317138671875,-4.8150634765625,8.3441162109375,1,1.0,1.0,1.0,1.0,15.00
2021-07-27 00:55:30.596,0.5840133,0.0,0.0,0.70188075,0.22122103,0.0,0.0,0.6167215,0.55655307,0.0,0.0,0.92562973,1.1557549,0.0,0.0,0.74346346,1.3290137,0.0,0.0,0.95822936,785.31134,799.41394,810.696,828.4249,813.1135,0.0,0.0,-0.02569580078125,0.05621337890625,0.98419189453125,3.177642822265625,-4.50103759765625,5.93658447265625,1,1.0,1.0,1.0,1.0,15.00
2021-07-27 00:55:30.597,0.5840133,0.0,0.0,0.70188075,0.22122103,0.0,0.0,0.6167215,0.55655307,0.0,0.0,0.92562973,1.1557549,0.0,0.0,0.74346346,1.3290137,0.0,0.0,0.95822936,788.1319,802.23444,863.47986,784.90845,803.44324,0.0,0.0,-0.02569580078125,0.05621337890625,0.98419189453125,3.177642822265625,-4.50103759765625,5.93658447265625,1,1.0,1.0,1.0,1.0,15.00
2021-07-27 00:55:30.597,0.5840133,0.0,0.0,0.70188075,0.22122103,0.0,0.0,0.6167215,0.55655307,0.0,0.0,0.92562973,1.1557549,0.0,0.0,0.74346346,1.3290137,0.0,0.0,0.95822936,800.6227,799.011,830.0366,750.2564,798.60803,0.0,0.0,-0.02569580078125,0.05621337890625,0.98419189453125,3.177642822265625,-4.50103759765625,5.93658447265625,1,1.0,1.0,1.0,1.0,15.00
2021-07-27 00:55:30.598,0.5840133,0.0,0.0,0.70188075,0.22122103,0.0,0.0,0.6167215,0.55655307,0.0,0.0,0.92562973,1.1557549,0.0,0.0,0.74346346,1.3290137,0.0,0.0,0.95822936,785.7143,811.9048,808.68134,751.06226,837.6923,0.0,0.0,-0.02569580078125,0.05621337890625,0.98419189453125,3.177642822265625,-4.50103759765625,5.93658447265625,1,1.0,1.0,1.0,1.0,15.00
2021-07-27 00:55:30.598,0.5840133,0.0,0.0,0.70188075,0.22122103,0.0,0.0,0.6167215,0.55655307,0.0,0.0,0.92562973,1.1557549,0.0,0.0,0.74346346,1.3290137,0.0,0.0,0.95822936,772.01465,819.9634,804.65204,809.0842,842.1245,0.0,0.0,-0.02569580078125,0.05621337890625,0.98419189453125,3.177642822265625,-4.50103759765625,5.93658447265625,1,1.0,1.0,1.0,1.0,15.00
2021-07-27 00:55:30.598,0.5840133,0.0,0.0,0.70188075,0.22122103,0.0,0.0,0.6167215,0.55655307,0.0,0.0,0.92562973,1.1557549,0.0,0.0,0.74346346,1.3290137,0.0,0.0,0.95822936,808.68134,838.0952,801.4286,866.30035,845.34796,0.0,0.0,-0.02569580078125,0.05621337890625,0.98419189453125,3.177642822265625,-4.50103759765625,5.93658447265625,1,1.0,1.0,1.0,1.0,15.00
2021-07-27 00:55:30.599,0.5840133,0.0,0.0,0.70188075,0.22122103,0.0,0.0,0.6167215,0.55655307,0.0,0.0,0.92562973,1.1557549,0.0,0.0,0.74346346,1.3290137,0.0,0.0,0.95822936,836.4835,836.4835,799.41394,833.2601,828.8278,0.0,0.0,-0.02569580078125,0.05621337890625,0.98419189453125,3.177642822265625,-4.50103759765625,5.93658447265625,1,1.0,1.0,1.0,1.0,15.00
2021-07-27 00:55:30.599,0.5840133,0.0,0.0,0.659741,0.22122103,0.0,0.0,0.60637,0.55655307,0.0,0.0,0.92562973,1.1557549,0.0,0.0,0.7282921,1.3290137,0.0,0.0,0.92173153,819.15753,814.7253,784.10254,759.92676,791.75824,0.0,0.0,-0.02569580078125,0.05621337890625,0.98419189453125,3.177642822265625,-4.50103759765625,5.93658447265625,1,1.0,1.0,1.0,1.0,15.00
2021-07-27 00:55:30.601,0.5840133,0.0,0.0,0.659741,0.22122103,0.0,0.0,0.60637,0.55655307,0.0,0.0,0.92562973,1.1557549,0.0,0.0,0.7282921,1.3290137,0.0,0.0,0.92173153,804.2491,801.8315,814.7253,756.30035,810.696,0.0,0.0,-0.02569580078125,0.05621337890625,0.98419189453125,3.177642822265625,-4.50103759765625,5.93658447265625,1,1.0,1.0,1.0,1.0,15.00
2021-07-27 00:55:30.602,0.5840133,0.0,0.0,0.659741,0.22122103,0.0,0.0,0.60637,0.55655307,0.0,0.0,0.92562973,1.1557549,0.0,0.0,0.7282921,1.3290137,0.0,0.0,0.92173153,768.7912,804.2491,824.3956,799.41394,865.4945,0.0,0.0,-0.02569580078125,0.05621337890625,0.98419189453125,3.177642822265625,-4.50103759765625,5.93658447265625,1,1.0,1.0,1.0,1.0,15.00
2021-07-27 00:55:30.602,0.5840133,0.0,0.0,0.659741,0.22122103,0.0,0.0,0.60637,0.55655307,0.0,0.0,0.92562973,1.1557549,0.0,0.0,0.7282921,1.3290137,0.0,0.0,0.92173153,741.79486,797.3993,796.5934,832.8571,850.989,0.0,0.0,-0.02569580078125,0.05621337890625,0.98419189453125,3.177642822265625,-4.50103759765625,5.93658447265625,1,1.0,1.0,1.0,1.0,15.00
2021-07-27 00:55:30.602,0.5840133,0.0,0.0,0.659741,0.22122103,0.0,0.0,0.60637,0.55655307,0.0,0.0,0.92562973,1.1557549,0.0,0.0,0.7282921,1.3290137,0.0,0.0,0.92173153,769.19415,776.04395,805.8608,819.15753,817.9487,0.0,0.0,-0.02569580078125,0.05621337890625,0.98419189453125,3.177642822265625,-4.50103759765625,5.93658447265625,1,1.0,1.0,1.0,1.0,15.00
2021-07-27 00:55:30.681,0.5840133,0.0,0.0,0.659741,0.22122103,0.0,0.0,0.60637,0.55655307,0.0,0.0,0.92562973,1.1557549,0.0,0.0,0.7282921,1.3290137,0.0,0.0,0.92173153,811.0989,788.1319,798.20514,783.2967,742.1978,0.0,0.0,-0.01953125,0.056396484375,0.98773193359375,3.21502685546875,-5.5328369140625,4.344024658203125,1,1.0,1.0,1.0,1.0,15.00
2021-07-27 00:55:30.681,0.5840133,0.0,0.0,0.659741,0.22122103,0.0,0.0,0.60637,0.55655307,0.0,0.0,0.92562973,1.1557549,0.0,0.0,0.7282921,1.3290137,0.0,0.0,0.92173153,800.6227,793.36993,788.93774,768.7912,683.7729,0.0,0.0,-0.01953125,0.056396484375,0.98773193359375,3.21502685546875,-5.5328369140625,4.344024658203125,1,1.0,1.0,1.0,1.0,15.00
2021-07-27 00:55:30.682,0.5840133,0.0,0.0,0.659741,0.22122103,0.0,0.0,0.60637,0.55655307,0.0,0.0,0.92562973,1.1557549,0.0,0.0,0.7282921,1.3290137,0.0,0.0,0.92173153,815.12823,842.52747,797.3993,831.6484,774.43225,0.0,0.0,-0.01953125,0.056396484375,0.98773193359375,3.21502685546875,-5.5328369140625,4.344024658203125,1,1.0,1.0,1.0,1.0,15.00
2021-07-27 00:55:30.682,0.5840133,0.0,0.0,0.659741,0.22122103,0.0,0.0,0.60637,0.55655307,0.0,0.0,0.92562973,1.1557549,0.0,0.0,0.7282921,1.3290137,0.0,0.0,0.92173153,804.65204,860.65936,793.36993,871.9414,836.08057,0.0,0.0,-0.01953125,0.056396484375,0.98773193359375,3.21502685546875,-5.5328369140625,4.344024658203125,1,1.0,1.0,1.0,1.0,15.00
2021-07-27 00:55:30.682,0.5840133,0.0,0.0,0.659741,0.22122103,0.0,0.0,0.60637,0.55655307,0.0,0.0,0.92562973,1.1557549,0.0,0.0,0.7282921,1.3290137,0.0,0.0,0.92173153,769.59705,803.8461,803.0403,807.0696,798.60803,0.0,0.0,-0.01953125,0.056396484375,0.98773193359375,3.21502685546875,-5.5328369140625,4.344024658203125,1,1.0,1.0,1.0,1.0,15.00
2021-07-27 00:55:30.683,0.5840133,0.0,0.0,0.659741,0.22122103,0.0,0.0,0.60637,0.55655307,0.0,0.0,0.92562973,1.1557549,0.0,0.0,0.7282921,1.3290137,0.0,0.0,0.92173153,797.3993,803.44324,821.978,757.9121,770.40295,0.0,0.0,-0.01953125,0.056396484375,0.98773193359375,3.21502685546875,-5.5328369140625,4.344024658203125,1,1.0,1.0,1.0,1.0,15.00
2021-07-27 00:55:30.683,0.5840133,0.0,0.0,0.659741,0.22122103,0.0,0.0,0.60637,0.55655307,0.0,0.0,0.92562973,1.1557549,0.0,0.0,0.7282921,1.3290137,0.0,0.0,0.92173153,812.71063,796.1905,834.0659,753.47986,787.72894,0.0,0.0,-0.01953125,0.056396484375,0.98773193359375,3.21502685546875,-5.5328369140625,4.344024658203125,1,1.0,1.0,1.0,1.0,15.00
2021-07-27 00:55:30.683,0.5840133,0.0,0.0,0.659741,0.22122103,0.0,0.0,0.60637,0.55655307,0.0,0.0,0.92562973,1.1557549,0.0,0.0,0.7282921,1.3290137,0.0,0.0,0.92173153,794.17584,802.6374,833.2601,781.685,761.9414,0.0,0.0,-0.01953125,0.056396484375,0.98773193359375,3.21502685546875,-5.5328369140625,4.344024658203125,1,1.0,1.0,1.0,1.0,15.00
2021-07-27 00:55:30.683,0.5840133,0.0,0.0,0.659741,0.22122103,0.0,0.0,0.60637,0.55655307,0.0,0.0,0.92562973,1.1557549,0.0,0.0,0.7282921,1.3290137,0.0,0.0,0.92173153,772.8205,830.0366,833.2601,831.2454,819.5604,0.0,0.0,-0.01953125,0.056396484375,0.98773193359375,3.21502685546875,-5.5328369140625,4.344024658203125,1,1.0,1.0,1.0,1.0,15.00
2021-07-27 00:55:30.684,0.5840133,0.0,0.0,0.659741,0.22122103,0.0,0.0,0.60637,0.55655307,0.0,0.0,0.92562973,1.1557549,0.0,0.0,0.7282921,1.3290137,0.0,0.0,0.92173153,772.8205,834.4689,810.293,813.91943,842.52747,0.0,0.0,-0.01953125,0.056396484375,0.98773193359375,3.21502685546875,-5.5328369140625,4.344024658203125,1,1.0,1.0,1.0,1.0,15.00
2021-07-27 00:55:30.684,0.5840133,0.0,0.0,0.659741,0.22122103,0.0,0.0,0.60637,0.55655307,0.0,0.0,0.92562973,1.1557549,0.0,0.0,0.7282921,1.3290137,0.0,0.0,0.92173153,803.8461,787.72894,782.49084,787.72894,763.95605,0.0,0.0,-0.01953125,0.056396484375,0.98773193359375,3.21502685546875,-5.5328369140625,4.344024658203125,1,1.0,1.0,1.0,1.0,15.00
2021-07-27 00:55:30.684,0.5840133,0.0,0.0,0.659741,0.22122103,0.0,0.0,0.60637,0.55655307,0.0,0.0,0.92562973,1.1557549,0.0,0.0,0.7282921,1.3290137,0.0,0.0,0.92173153,837.6923,801.02563,802.23444,797.3993,726.8865,0.0,0.0,-0.01953125,0.056396484375,0.98773193359375,3.21502685546875,-5.5328369140625,4.344024658203125,1,1.0,1.0,1.0,1.0,15.00
2021-07-27 00:55:30.713,0.5840133,0.0,0.0,0.659741,0.22122103,0.0,0.0,0.60637,0.55655307,0.0,0.0,0.92562973,1.1557549,0.0,0.0,0.7282921,1.3290137,0.0,0.0,0.92173153,818.7546,829.6337,821.978,829.6337,725.6777,0.0,0.0,-0.0174560546875,0.05810546875,0.991943359375,2.49725341796875,-5.99639892578125,3.177642822265625,1,1.0,1.0,1.0,1.0,15.00
2021-07-27 00:55:30.715,0.5840133,0.0,0.0,0.659741,0.22122103,0.0,0.0,0.60637,0.55655307,0.0,0.0,0.92562973,1.1557549,0.0,0.0,0.7282921,1.3290137,0.0,0.0,0.92173153,796.99634,832.8571,828.8278,859.85345,728.9011,0.0,0.0,-0.0174560546875,0.05810546875,0.991943359375,2.49725341796875,-5.99639892578125,3.177642822265625,1,1.0,1.0,1.0,1.0,15.00
2021-07-27 00:55:30.716,0.5840133,0.0,0.0,0.659741,0.22122103,0.0,0.0,0.60637,0.55655307,0.0,0.0,0.92562973,1.1557549,0.0,0.0,0.7282921,1.3290137,0.0,0.0,0.92173153,784.10254,820.7692,799.011,809.4872,796.1905,0.0,0.0,-0.0174560546875,0.05810546875,0.991943359375,2.49725341796875,-5.99639892578125,3.177642822265625,1,1.0,1.0,1.0,1.0,15.00
2021-07-27 00:55:30.716,0.5840133,0.0,0.0,0.659741,0.22122103,0.0,0.0,0.60637,0.55655307,0.0,0.0,0.92562973,1.1557549,0.0,0.0,0.7282921,1.3290137,0.0,0.0,0.92173153,791.3553,809.4872,800.2198,755.4945,809.89014,0.0,0.0,-0.0174560546875,0.05810546875,0.991943359375,2.49725341796875,-5.99639892578125,3.177642822265625,1,1.0,1.0,1.0,1.0,15.00
2021-07-27 00:55:30.717,0.5840133,0.0,0.0,0.659741,0.22122103,0.0,0.0,0.60637,0.55655307,0.0,0.0,0.92562973,1.1557549,0.0,0.0,0.7282921,1.3290137,0.0,0.0,0.92173153,821.5751,813.5165,819.9634,762.3443,783.2967,0.0,0.0,-0.0174560546875,0.05810546875,0.991943359375,2.49725341796875,-5.99639892578125,3.177642822265625,1,1.0,1.0,1.0,1.0,15.00
2021-07-27 00:55:30.717,0.5840133,0.0,0.0,0.659741,0.22122103,0.0,0.0,0.60637,0.55655307,0.0,0.0,0.92562973,1.1557549,0.0,0.0,0.7282921,1.3290137,0.0,0.0,0.92173153,809.4872,797.3993,818.7546,796.5934,795.78754,0.0,0.0,-0.0174560546875,0.05810546875,0.991943359375,2.49725341796875,-5.99639892578125,3.177642822265625,1,1.0,1.0,1.0,1.0,15.00
2021-07-27 00:55:30.717,0.5840133,0.0,0.0,0.659741,0.22122103,0.0,0.0,0.60637,0.55655307,0.0,0.0,0.92562973,1.1557549,0.0,0.0,0.7282921,1.3290137,0.0,0.0,0.92173153,791.3553,787.326,826.4103,845.34796,824.7985,0.0,0.0,-0.0174560546875,0.05810546875,0.991943359375,2.49725341796875,-5.99639892578125,3.177642822265625,1,1.0,1.0,1.0,1.0,15.00
