timestamps,TP9,AF7,AF8,TP10,Right AUX
1533057448.495,910.1897291240001,710.777713595547,90.95799634750848,1008.9669377714481,763.9261328727264
1533057448.4989998,1032.4572046833339,753.8518090636979,363.8210279154709,1081.378514847989,805.1359215422602
1533057448.5029998,1159.2410835039993,796.925904531849,786.4946517088442,1260.0049434446394,928.7587957757089
1533057448.5070002,1014.3359480659994,775.3998844719845,588.5369162535873,1274.4793493485247,1023.8503182129068
1533057448.5110002,869.4308126279996,732.3257890038334,246.11583615966606,1139.3156860206448,944.6052189235244
1533057448.515,864.9051354379999,689.2296381872604,155.15783981215762,1119.9967043702404,595.9254836952111
1533057448.519,991.6982881873333,560.0073517828073,208.66318810331333,1119.9967043702404,706.8699210553771
1533057448.5229998,1100.3794582480002,560.0073517828073,508.28437255413513,1105.522298466355,874.8705702328922
1533057448.5270002,982.6376598786661,613.8444572808907,647.3895121314897,1129.6561951954427,798.7934572180425
1533057448.5310001,887.5520692453341,560.0073517828073,369.16827550221757,1124.831393227481,887.549007106175
1533057448.534,878.4914409366668,549.244341752875,256.8103313331594,1081.378514847989,1166.4940936438563
1533057448.5379999,969.0606283086672,506.17024628472404,326.3683798591182,1119.9967043702404,1039.6967413607222
1533057448.542,1163.776034622667,689.2296381872604,545.7260631359248,1202.0677722719836,871.6960921832069
1533057448.546,1073.2068472506667,710.777713595547,460.12627184972604,1134.4809971634045,998.4934444663411
1533057448.55,919.2503574326674,495.3851809063698,251.46308374641274,1052.4099292616613,1011.171881339624
1533057448.554,864.9051354379999,463.0961508165729,80.25254369945213,984.8330410423606,1036.5287550861897
1533057448.5579998,978.1119826886664,398.4739799401354,42.7998956430994,984.8330410423606,599.0934699697436
1533057448.562,1154.7154063139997,463.0961508165729,406.6209235585703,1134.4809971634045,808.3039078167927
1533057448.566,1086.7931527493333,473.8591608465054,540.3788155491782,1202.0677722719836,979.4725432688405
1533057448.57,991.6982881873333,420.0000000000001,492.2316723193321,1148.9652899565683,881.2065427819573
1533057448.574,950.9393716913328,570.7703618127396,572.4842160187842,1076.5537128800272,1366.1875891170023
1533057448.5770001,1068.681170060667,603.0814472509584,272.8630315679624,1124.831393227481,969.9620926700901
1533057448.581,1186.413694501333,592.3184372210261,470.83172449778243,1163.4495827497321,678.3385692591261
1533057448.585,1109.4308126279996,603.0814472509584,941.6524915210018,1202.0677722719836,1090.4169806290065
1533057448.589,1059.6205417519998,495.3851809063698,636.6840594834333,1187.5834794788198,672.0025967100611
1533057448.593,932.8273890026662,463.0961508165729,304.9684320375685,1042.7603253257378,583.2470468219283
1533057448.5970001,987.1726109973338,538.4813317229429,106.99973910774854,1018.6264285966503,621.2823574417769
1533057448.601,1218.1119826886666,603.0814472509584,411.968171145317,1110.3471004343169,830.492795288826
1533057448.605,1159.2410835039993,603.0814472509584,556.4315157839812,1182.758677510858,814.6398803658578
1533057448.609,969.0606283086672,527.6962663445886,256.8103313331594,1163.4495827497321,668.8281186603758
1533057448.613,873.9657637466672,603.0814472509584,224.71588833811637,1004.1421358034863,928.7587957757089
1533057448.617,946.4136945013331,721.5407236254791,278.2102791547091,917.2462659337814,1372.5300534412202
1533057448.62,1118.4914409366668,656.9406080974638,379.87372815027396,984.8330410423606,1223.5503054612057
1533057448.6239998,1100.3794582480002,656.9406080974638,625.98956430994,1042.7603253257378,814.6398803658578
1533057448.6279998,973.5863054986669,678.4666281573282,588.5369162535873,1057.2446181189016,868.5281059086744
1533057448.6320002,873.9657637466672,764.6148190936302,390.56822332376726,989.6578430103224,1467.621575878418
1533057448.6360002,937.3623401213339,764.6148190936302,240.75763109835637,946.2049646308307,1286.94248982762
1533057448.64,1113.965763746667,646.1555427191093,460.12627184972604,1047.5851272936995,874.8705702328922
1533057448.644,1118.4914409366668,667.7036181273959,957.7051917558049,1119.9967043702404,935.094768324774
1533057448.6479998,1000.7589164960007,635.3925326891771,995.1578398121576,1105.522298466355,776.6045697460092
1533057448.6520002,905.6640519340006,506.17024628472404,684.8421601878424,1033.1008345005355,763.9261328727264
1533057448.6560001,905.6640519340006,344.6148190936302,497.5789199060788,951.039653488071,1014.3398676141564
1533057448.659,1123.0171181266664,463.0961508165729,770.4419514740413,1023.451230564612,871.6960921832069
1533057448.6629999,1236.223965377333,624.6295226592449,1118.2212366292722,1168.274384717694,643.4712449138101
1533057448.667,973.5863054986669,430.78506537835415,882.7998956430994,1033.1008345005355,561.058159349895
1533057448.671,792.457204683334,290.7777135955469,502.92616749282547,849.6594908252022,481.8130600605126
1533057448.675,833.2068472506666,301.5407236254791,513.6316201408819,864.1338967290875,729.0588085274103
1533057448.679,1005.2845936860002,355.3998844719845,647.3895121314897,922.0710679017432,570.5686099486454
1533057448.6829998,1068.681170060667,549.244341752875,893.5053482911558,955.8644554560327,954.1156695222747
1533057448.687,919.2503574326674,613.8444572808907,759.7474563005479,994.4826449782842,1004.8294170154062
1533057448.691,819.6205417519997,484.6221708764375,401.27367597182365,970.3487482491967,665.6601323858432
1533057448.695,864.9051354379999,549.244341752875,304.9684320375685,936.5553606949071,1106.2634037768219
1533057448.699,1005.2845936860002,516.9332563146563,262.1685363944691,1076.5537128800272,1049.2071919594725
1533057448.7020001,1100.3794582480002,441.54807540828654,593.8841638403339,1216.5520650651476,1147.4731924463556
1533057448.706,1000.7589164960007,506.17024628472404,840.0,1192.41816833606,1188.6829811158896
1533057448.71,855.8537810580007,495.3851809063698,631.3368118966866,1110.3471004343169,1134.7947555730727
1533057448.714,833.2068472506666,452.31108543821887,326.3683798591182,1033.1008345005355,922.4163314514911
1533057448.718,955.4743228100003,420.0000000000001,283.56848421601876,1057.2446181189016,532.5268075536441
1533057448.7220001,1064.1462189419992,570.7703618127396,593.8841638403339,1153.79009192453,614.9463848927118
1533057448.726,991.6982881873333,656.9406080974638,524.3261153143752,1148.9652899565683,706.8699210553771
1533057448.73,869.4308126279996,678.4666281573282,181.90503522045395,1076.5537128800272,795.6254709435099
1533057448.734,824.1554928706673,667.7036181273959,0.0,975.1735502171584,672.0025967100611
1533057448.738,950.9393716913328,592.3184372210261,133.75789199060787,970.3487482491967,415.24639764441304
1533057448.742,1091.318829939333,743.0887990337657,411.968171145317,1047.5851272936995,453.2817082642616
1533057448.745,991.6982881873333,861.5480754082865,428.02087138012,1066.8942220548251,716.3803716541274
1533057448.7489998,860.3794582480003,678.4666281573282,262.1685363944691,1033.1008345005355,833.6607815633585
1533057448.7529998,792.457204683334,549.244341752875,187.26324028176367,960.6892574239945,500.8339612580133
1533057448.7570002,842.2674755593338,549.244341752875,278.2102791547091,936.5553606949071,998.4934444663411
1533057448.7610002,1000.7589164960007,570.7703618127396,203.3049830420036,979.9983521851202,1195.0189536649546
1533057448.765,950.9393716913328,710.777713595547,342.4210800939212,1018.6264285966503,954.1156695222747
1533057448.769,855.8537810580007,667.7036181273959,395.926428385077,989.6578430103224,1191.850967390422
1533057448.7729998,810.5691873720004,506.17024628472404,117.70519175580485,878.6181895222514,1312.3058553493383
1533057448.7770002,896.6034236253333,516.9332563146563,48.14714322984607,922.0710679017432,906.5699083036758
1533057448.7810001,1100.3794582480002,613.8444572808907,299.62118445082183,1062.0694200868634,729.0588085274103
1533057448.784,1055.094864562,624.6295226592449,497.5789199060788,1071.7289109120654,801.961443492575
1533057448.7879999,887.5520692453341,495.3851809063698,342.4210800939212,999.3074469462459,789.2830066192921
1533057448.792,792.457204683334,495.3851809063698,251.46308374641274,922.0710679017432,1334.4947428213716
1533057448.796,855.8537810580007,538.4813317229429,208.66318810331333,941.3801626628689,1454.9431390051352
1533057448.8,1005.2845936860002,452.31108543821887,208.66318810331333,984.8330410423606,608.603920568494
1533057448.804,964.5256771899997,581.5554271910938,583.1787111922775,1008.9669377714481,532.5268075536441
1533057448.8079998,892.0777464353337,764.6148190936302,668.7894599530393,1066.8942220548251,602.2679480194289
1533057448.812,824.1554928706673,700.0147035656145,583.1787111922775,999.3074469462459,450.1137219897291
1533057448.816,806.0342362533328,581.5554271910938,599.2314114270806,902.7619731406174,484.98104633504516
1533057448.82,996.223965377333,624.6295226592449,636.6840594834333,999.3074469462459,364.5261583761289
1533057448.824,1059.6205417519998,656.9406080974638,834.6527524132533,1091.0380056731913,538.8692718778619
1533057448.8270001,896.6034236253333,560.0073517828073,732.9893034176885,1047.5851272936995,963.6261201210252
1533057448.831,747.1726109973338,409.2369899700677,465.4735194364727,936.5553606949071,1039.6967413607222
1533057448.835,729.0606283086672,344.6148190936302,438.72632402817635,854.484292793164,1423.2438009343516
1533057448.839,910.1897291240001,463.0961508165729,449.4208192016697,917.2462659337814,1134.7947555730727
1533057448.843,1000.7589164960007,538.4813317229429,518.9788677276285,946.2049646308307,504.00194753254584
1533057448.8470001,901.1291008153329,560.0073517828073,535.0315679624315,897.927284283377,526.1908350045791
1533057448.851,787.9222535646663,581.5554271910938,454.77902426297936,840.0,1042.8712194104075
1533057448.855,738.1119826886664,463.0961508165729,358.4737803287242,777.2380268593826,982.640529543373
1533057448.859,950.9393716913328,64.62217087643754,497.5789199060788,970.3487482491967,282.1130728122139
1533057448.863,1304.1462189419992,215.39253268917713,791.8418992955909,1317.9322277280164,228.22484726939712
1533057448.867,1113.965763746667,656.9406080974638,674.136707539786,1134.4809971634045,535.7012856033293
1533057448.87,624.9051354379999,581.5554271910938,353.11557526741456,671.0330622285519,789.2830066192921
1533057448.8739998,602.2674755593338,549.244341752875,240.75763109835637,497.2413224891421,859.0176553099241
1533057448.8779998,837.7325244406662,700.0147035656145,106.99973910774854,526.2099080754699,954.1156695222747
1533057448.8820002,842.2674755593338,883.0961508165731,256.8103313331594,477.93222772801636,1125.2843049743224
1533057448.8860002,697.3623401213339,958.4813317229429,422.67362379337334,395.86115982627325,1030.1927825371247
1533057448.89,593.2068472506666,936.9332563146565,0.0,308.9652899565683,792.4509928938246
1533057448.894,529.8102708759999,990.7703618127396,42.7998956430994,168.96693777144807,703.7019347808446
1533057448.8979998,575.0948645620001,893.8591608465052,310.3156796243152,178.62642859665021,1337.662729095904
1533057448.9020002,633.9657637466672,829.2369899700677,385.22097573702064,299.31568602064476,1556.3771257665508
1533057448.9060001,606.7931527493334,861.5480754082865,556.4315157839812,458.6231329668907,1033.3607688116572
1533057448.909,547.9222535646663,840.0,486.87346725802246,458.6231329668907,741.7372454006932
1533057448.9129999,543.3965763746667,926.170246284724,358.4737803287242,415.1702545873989,893.8849796552404
1533057448.917,710.9486456200008,936.9332563146565,390.56822332376726,516.5504172502677,1131.6267692985402
1533057448.921,860.3794582480003,958.4813317229429,631.3368118966866,622.7553818810984,916.0738671272734
1533057448.925,787.9222535646663,1076.9406080974636,797.2001043569006,651.7239674674262,1226.7182917357381
1533057448.929,674.7154063139998,980.0073517828072,577.8314636055309,608.2809759772131,1407.3973777865363
1533057448.9329998,647.5520692453341,829.2369899700677,326.3683798591182,531.0347100434317,1008.0038950650915
1533057448.937,819.6205417519997,807.7109699102032,326.3683798591182,564.8280975977214,820.9823446900756
1533057448.941,969.0606283086672,840.0,604.5896164883903,690.3421569896776,646.6457229634954
1533057448.945,883.0171181266664,893.8591608465052,963.0524393425516,738.6198373371311,912.9058808527408
1533057448.949,783.3965763746667,947.6962663445886,797.2001043569006,757.9289320982568,1125.2843049743224
1533057448.9520001,738.1119826886664,829.2369899700677,465.4735194364727,724.1355445439673,843.1712321621088
1533057448.956,855.8537810580007,753.8518090636979,331.71562744586487,666.2082602605901,938.2627545993065
1533057448.96,1000.7589164960007,775.3998844719845,422.67362379337334,728.9702334012076,656.149681787093
1533057448.964,946.4136945013331,818.4739799401355,727.6420558309418,791.7223196525465,393.05751017237986
1533057448.968,878.4914409366668,980.0073517828072,904.1998434646491,820.6909052388743,751.2476959994435
1533057448.9720001,819.6205417519997,936.9332563146565,877.4526480563527,767.588422923459,621.2823574417769
1533057448.976,837.7325244406662,829.2369899700677,818.6000521784503,724.1355445439673,630.7928080405272
1533057448.98,1000.7589164960007,850.7850653783543,1032.6104878685103,849.6594908252022,652.9816955125603
1533057448.984,987.1726109973338,807.7109699102032,1214.5264805635272,917.2462659337814,881.2065427819573
1533057448.988,896.6034236253333,829.2369899700677,1134.262979389512,873.7933875542897,1137.9627418476055
1533057448.992,851.318829939333,818.4739799401355,941.6524915210018,786.8975176845847,751.2476959994435
1533057448.995,914.7154063139998,743.0887990337657,786.4946517088442,753.1041301302951,729.0588085274103
1533057448.9989998,1091.318829939333,775.3998844719845,732.9893034176885,864.1338967290875,874.8705702328922
1533057449.0029998,1082.267475559334,947.6962663445886,1037.957735455257,970.3487482491967,1017.507853888689
1533057449.0070002,987.1726109973338,1012.3184372210261,1161.0211322723715,994.4826449782842,900.2274439794579
1533057449.0110002,919.2503574326674,840.0,909.5580485259587,873.7933875542897,846.3392184366413
1533057449.015,910.1897291240001,710.777713595547,695.5366553613358,772.4132248914208,1077.7385437557236
1533057449.019,1055.094864562,764.6148190936302,802.5473519436473,864.1338967290875,909.7378945782085
1533057449.0229998,1132.0777464353337,893.8591608465052,1161.0211322723715,965.5140593919563,1001.6614307408736
1533057449.0270002,1036.9828818733336,861.5480754082865,1037.957735455257,979.9983521851202,992.1509801421233
1533057449.0310001,864.9051354379999,646.1555427191093,807.894599530394,864.1338967290875,649.8137092380279
1533057449.034,842.2674755593338,560.0073517828073,856.0527002348031,782.072715716623,1014.3398676141564
1533057449.0379999,1059.6205417519998,549.244341752875,856.0527002348031,873.7933875542897,1118.9418406501047
1533057449.042,1145.6640519340006,570.7703618127396,1064.7158883381164,955.8644554560327,713.2058936044422
1533057449.046,1018.8708991846671,656.9406080974638,1358.9788677276285,979.9983521851202,567.3941318989602
1533057449.05,928.3017118126667,613.8444572808907,1187.7683276806679,951.039653488071,684.681033583344
1533057449.054,932.8273890026662,667.7036181273959,898.8525958779024,897.927284283377,852.6816827608591
1533057449.0579998,1041.5085590633332,764.6148190936302,957.7051917558049,893.1024823154153,859.0176553099241
1533057449.062,1136.6034236253333,850.7850653783543,1337.5789199060787,994.4826449782842,786.1150203447596
1533057449.066,1123.0171181266664,883.0961508165731,1358.9788677276285,1037.935523357776,874.8705702328922
1533057449.07,1050.5691873720004,818.4739799401355,1091.4630837464126,975.1735502171584,893.8849796552404
1533057449.074,1009.8102708759999,872.3110854382189,1005.863292460214,912.411577076541,1074.5640657060383
1533057449.0770001,1086.7931527493333,936.9332563146565,952.3579441690582,878.6181895222514,1499.3209139492014
1533057449.081,1190.9393716913328,969.244341752875,1070.063135924863,922.0710679017432,1096.7529531780715
1533057449.085,1118.4914409366668,1076.9406080974636,1182.4210800939213,965.5140593919563,836.8287678378911
1533057449.089,978.1119826886664,915.3851809063696,823.9472997651969,936.5553606949071,995.3189664166558
1533057449.093,978.1119826886664,840.0,535.0315679624315,893.1024823154153,792.4509928938246
1533057449.0970001,1095.8445071293327,883.0961508165731,379.87372815027396,883.4528783794917,719.5483579286599
1533057449.101,1240.7496425673326,786.1628945019168,545.7260631359248,979.9983521851202,643.4712449138101
1533057449.105,1163.776034622667,807.7109699102032,973.7578919906078,1013.7917397394099,672.0025967100611
1533057449.109,1000.7589164960007,732.3257890038334,823.9472997651969,960.6892574239945,630.7928080405272
1533057449.113,932.8273890026662,624.6295226592449,636.6840594834333,931.7206718376667,497.659483208328
1533057449.117,996.223965377333,538.4813317229429,738.3475084789982,999.3074469462459,916.0738671272734
1533057449.12,1163.776034622667,441.54807540828654,914.9052961127054,1047.5851272936995,1093.584966903539
1533057449.1239998,1141.129100815333,366.16289450191664,1005.863292460214,1076.5537128800272,808.3039078167927
1533057449.1279998,987.1726109973338,409.2369899700677,904.1998434646491,1066.8942220548251,624.4568354914621
1533057449.1320002,878.4914409366668,506.17024628472404,781.1474041220976,951.039653488071,497.659483208328
1533057449.1360002,941.8880173113336,527.6962663445886,856.0527002348031,888.2776803474535,592.7574974206786
1533057449.14,1068.681170060667,473.8591608465054,818.6000521784503,984.8330410423606,786.1150203447596
1533057449.144,1023.3965763746667,484.6221708764375,1091.4630837464126,1095.862807641153,928.7587957757089
1533057449.1479998,955.4743228100003,441.54807540828654,1064.7158883381164,1100.6876096091148,1210.8718685879228
1533057449.1520002,910.1897291240001,312.32578900383345,620.6313592486304,1057.2446181189016,855.8496690353916
1533057449.1560001,991.6982881873333,376.92590453184897,625.98956430994,999.3074469462459,595.9254836952111
1533057449.159,1123.0171181266664,506.17024628472404,856.0527002348031,1042.7603253257378,1036.5287550861897
1533057449.1629999,1086.7931527493333,538.4813317229429,925.5997912861988,1115.1719024022786,1252.0751654823039
1533057449.167,1036.9828818733336,355.3998844719845,759.7474563005479,1129.6561951954427,1036.5287550861897
1533057449.171,960.0,247.70361812739588,444.073571614923,1062.0694200868634,545.2052444269269
1533057449.175,869.4308126279996,376.92590453184897,438.72632402817635,811.0314144136721,659.3241598367782
1533057449.179,1009.8102708759999,560.0073517828073,609.936864075137,791.7223196525465,1042.8712194104075
1533057449.1829998,1095.8445071293327,656.9406080974638,829.2945473519436,955.8644554560327,744.9052316752258
1533057449.187,982.6376598786661,613.8444572808907,1016.5577876337073,1028.2760325325737,716.3803716541274
1533057449.191,914.7154063139998,635.3925326891771,856.0527002348031,979.9983521851202,954.1156695222747
1533057449.195,932.8273890026662,592.3184372210261,674.136707539786,922.0710679017432,1020.6823319383743
1533057449.199,1077.732524440666,463.0961508165729,722.2948082441951,1028.2760325325737,976.3045569943079
1533057449.2020001,1127.5427953166661,516.9332563146563,925.5997912861988,1144.1404879886065,855.8496690353916
1533057449.206,1064.1462189419992,656.9406080974638,952.3579441690582,1187.5834794788198,957.2836557968072
1533057449.21,964.5256771899997,581.5554271910938,786.4946517088442,1148.9652899565683,424.75684824316335
1533057449.214,955.4743228100003,538.4813317229429,663.4422123662927,1081.378514847989,383.5470595736295
1533057449.218,1113.965763746667,516.9332563146563,551.0842681972346,1110.3471004343169,890.7169933807077
1533057449.2220001,1200.0,516.9332563146563,754.3892512392382,1187.5834794788198,668.8281186603758
1533057449.226,1150.1897291240002,743.0887990337657,1000.5050873989043,1197.2429703040218,846.3392184366413
1533057449.23,1064.1462189419992,796.925904531849,797.2001043569006,1119.9967043702404,1432.754251533102
1533057449.234,1018.8708991846671,656.9406080974638,513.6316201408819,1042.7603253257378,900.2274439794579
1533057449.238,1123.0171181266664,592.3184372210261,679.4949126010957,1071.7289109120654,732.2267948019429
1533057449.242,1218.1119826886666,753.8518090636979,1005.863292460214,1158.6247807817704,1375.6980397157527
1533057449.245,1095.8445071293327,850.7850653783543,893.5053482911558,1148.9652899565683,1163.319615594171
1533057449.2489998,987.1726109973338,786.1628945019168,840.0,1062.0694200868634,881.2065427819573
1533057449.2529998,955.4743228100003,721.5407236254791,829.2945473519436,965.5140593919563,725.8908222528778
1533057449.2570002,1046.034236253333,667.7036181273959,898.8525958779024,999.3074469462459,1271.0960666798046
1533057449.2610002,1186.413694501333,796.925904531849,1048.6631881033134,1105.522298466355,1413.739842110754
1533057449.265,1091.318829939333,947.6962663445886,936.3052439342551,1173.0991866856557,859.0176553099241
1533057449.269,987.1726109973338,969.244341752875,786.4946517088442,1153.79009192453,1039.6967413607222
1533057449.2729998,960.0,958.4813317229429,711.5893555961388,1062.0694200868634,1125.2843049743224
1533057449.2770002,1064.1462189419992,980.0073517828072,588.5369162535873,1062.0694200868634,963.6261201210252
1533057449.2810001,1227.1726109973338,1023.0814472509584,679.4949126010957,1124.831393227481,969.9620926700901
1533057449.285,1168.3017118126666,1130.7777135955469,909.5580485259587,1148.9652899565683,545.2052444269269
1533057449.2879999,1068.681170060667,1173.851809063698,850.7054526480564,1129.6561951954427,592.7574974206786
1533057449.292,1027.9222535646663,1023.0814472509584,572.4842160187842,1037.935523357776,725.8908222528778
1533057449.296,1123.0171181266664,990.7703618127396,513.6316201408819,1018.6264285966503,801.961443492575
1533057449.3,1308.681170060667,1098.4666281573282,674.136707539786,1168.274384717694,884.3810208316426
1533057449.304,1204.5256771899997,1066.1555427191095,845.3472475867467,1226.2115558903497,706.8699210553771
1533057449.3079998,1059.6205417519998,947.6962663445886,668.7894599530393,1168.274384717694,976.3045569943079
1533057449.312,1023.3965763746667,926.170246284724,278.2102791547091,1119.9967043702404,833.6607815633585
1533057449.316,1073.2068472506667,915.3851809063696,326.3683798591182,1091.0380056731913,995.3189664166558
1533057449.32,1254.3359480659994,1066.1555427191095,732.9893034176885,1153.79009192453,1008.0038950650915
1533057449.324,1240.7496425673326,1303.074095468151,957.7051917558049,1177.9338755428962,602.2679480194289
1533057449.3270001,1091.318829939333,1378.4592763745209,893.5053482911558,1115.1719024022786,681.5130473088113
1533057449.331,1014.3359480659994,1313.8591608465053,807.894599530394,1052.4099292616613,814.6398803658578
1533057449.335,1073.2068472506667,1227.7109699102032,663.4422123662927,970.3487482491967,570.5686099486454
1533057449.339,1231.6982881873334,1249.2369899700682,775.8001565353509,1066.8942220548251,643.4712449138101
1533057449.343,1231.6982881873334,1313.8591608465053,1043.3159405165666,1187.5834794788198,656.149681787093
1533057449.3470001,1082.267475559334,1270.7850653783541,936.3052439342551,1139.3156860206448,450.1137219897291
1533057449.351,978.1119826886664,1206.1628945019168,679.4949126010957,1062.0694200868634,779.7725560205417
1533057449.355,973.5863054986669,1184.61481909363,535.0315679624315,1008.9669377714481,1033.3607688116572
1533057449.359,1109.4308126279996,1163.0887990337658,786.4946517088442,1052.4099292616613,957.2836557968072
1533057449.363,1141.129100815333,1130.7777135955469,1123.5684842160188,1100.6876096091148,782.947034070227
1533057449.367,1014.3359480659994,1023.0814472509584,1091.4630837464126,1071.7289109120654,725.8908222528778
1533057449.37,910.1897291240001,893.8591608465052,861.3999478215497,1028.2760325325737,960.4516420713397
1533057449.3739998,946.4136945013331,1012.3184372210261,727.6420558309418,1004.1421358034863,973.1300789446226
1533057449.3779998,1145.6640519340006,1076.9406080974636,813.2528045917036,1110.3471004343169,1039.6967413607222
1533057449.3820002,1258.870899184667,1033.8444572808905,947.0106965823115,1168.274384717694,1217.2078411369878
1533057449.3860002,1177.362340121334,1109.2296381872604,1214.5264805635272,1187.5834794788198,903.3954302539908
1533057449.39,1027.9222535646663,1044.6295226592447,1128.9157318027655,1124.831393227481,897.0594577049254
1533057449.394,987.1726109973338,958.4813317229429,797.2001043569006,1066.8942220548251,618.1143711672444
1533057449.3979998,1132.0777464353337,1023.0814472509584,941.6524915210018,1163.4495827497321,602.2679480194289
1533057449.4020002,1213.586305498667,1087.7036181273959,1273.3790764414298,1260.0049434446394,852.6816827608591
1533057449.4060001,1123.0171181266664,990.7703618127396,1155.673884685625,1255.1702545873989,630.7928080405272
1533057449.41,987.1726109973338,947.6962663445886,1011.2105400469607,1129.6561951954427,1141.130728122138
1533057449.4129999,901.1291008153329,1023.0814472509584,850.7054526480564,1013.7917397394099,1375.6980397157527
1533057449.417,1023.3965763746667,969.244341752875,588.5369162535873,1091.0380056731913,1182.3405167916717
1533057449.421,1177.362340121334,1001.555427191094,732.9893034176885,1211.7272630971859,633.9607943150597
1533057449.425,1068.681170060667,1098.4666281573282,1016.5577876337073,1192.41816833606,554.7156950256773
1533057449.429,914.7154063139998,958.4813317229429,834.6527524132533,1119.9967043702404,973.1300789446226
1533057449.4329998,864.9051354379999,936.9332563146565,658.0840073049831,1086.2033168159508,767.0941191472589
1533057449.437,987.1726109973338,1012.3184372210261,738.3475084789982,1091.0380056731913,703.7019347808446
1533057449.441,1086.7931527493333,1023.0814472509584,1000.5050873989043,1144.1404879886065,868.5281059086744
1533057449.445,1041.5085590633332,1066.1555427191095,1027.2632402817637,1187.5834794788198,960.4516420713397
1533057449.449,987.1726109973338,1076.9406080974636,716.9475606574484,1153.79009192453,672.0025967100611
1533057449.4520001,914.7154063139998,1076.9406080974636,449.4208192016697,1071.7289109120654,843.1712321621088
1533057449.456,1009.8102708759999,1023.0814472509584,428.02087138012,1071.7289109120654,1008.0038950650915
1533057449.46,1113.965763746667,1033.8444572808905,722.2948082441951,1110.3471004343169,427.9248345176959
1533057449.464,941.8880173113336,1012.3184372210261,952.3579441690582,1057.2446181189016,668.8281186603758
1533057449.468,846.7931527493334,926.170246284724,690.1894077745891,1004.1421358034863,874.8705702328922
1533057449.4720001,810.5691873720004,1012.3184372210261,588.5369162535873,912.411577076541,735.3947810764754
1533057449.476,869.4308126279996,1012.3184372210261,807.894599530394,888.2776803474535,1042.8712194104075
1533057449.48,1109.4308126279996,1001.555427191094,861.3999478215497,1008.9669377714481,1061.8856288327554
1533057449.484,1100.3794582480002,1120.0147035656146,1043.3159405165666,1134.4809971634045,1030.1927825371247
1533057449.488,991.6982881873333,1023.0814472509584,1075.4103835116098,1139.3156860206448,878.0385565074248
1533057449.492,955.4743228100003,915.3851809063696,957.7051917558049,1066.8942220548251,995.3189664166558
1533057449.495,1005.2845936860002,947.6962663445886,904.1998434646491,1052.4099292616613,935.094768324774
1533057449.4989998,1181.8880173113334,958.4813317229429,1005.863292460214,1153.79009192453,684.681033583344
1533057449.5029998,1195.4743228100003,926.170246284724,1310.8317244977825,1226.2115558903497,1020.6823319383743
1533057449.5070002,1073.2068472506667,829.2369899700677,1316.178972084529,1197.2429703040218,833.6607815633585
1533057449.5110002,978.1119826886664,850.7850653783543,1128.9157318027655,1129.6561951954427,814.6398803658578
1533057449.515,1027.9222535646663,861.5480754082865,1032.6104878685103,1071.7289109120654,1150.641178720888
1533057449.519,1168.3017118126666,700.0147035656145,941.6524915210018,1115.1719024022786,982.640529543373
1533057449.5229998,1104.905135438,689.2296381872604,1000.5050873989043,1134.4809971634045,969.9620926700901
1533057449.5270002,982.6376598786661,796.925904531849,850.7054526480564,1124.831393227481,865.3601196341419
1533057449.5310001,955.4743228100003,732.3257890038334,502.92616749282547,1062.0694200868634,491.323510659263
1533057449.535,982.6376598786661,613.8444572808907,390.56822332376726,1028.2760325325737,497.659483208328
1533057449.5379999,1141.129100815333,743.0887990337657,588.5369162535873,1124.831393227481,633.9607943150597
1533057449.542,1177.362340121334,850.7850653783543,893.5053482911558,1206.8925742399454,982.640529543373
1533057449.546,1036.9828818733336,721.5407236254791,695.5366553613358,1182.758677510858,1328.1522784971537
1533057449.55,928.3017118126667,710.777713595547,433.3790764414297,1071.7289109120654,944.6052189235244
1533057449.554,914.7154063139998,786.1628945019168,572.4842160187842,1008.9669377714481,1008.0038950650915
1533057449.5579998,1064.1462189419992,656.9406080974638,588.5369162535873,1057.2446181189016,976.3045569943079
1533057449.562,1132.0777464353337,667.7036181273959,615.2841116618837,1076.5537128800272,748.0732179497583
1533057449.566,1032.4572046833339,786.1628945019168,497.5789199060788,1076.5537128800272,472.3026094617623
1533057449.57,941.8880173113336,775.3998844719845,256.8103313331594,1023.451230564612,757.5836685485086
1533057449.574,950.9393716913328,796.925904531849,299.62118445082183,960.6892574239945,1423.2438009343516
1533057449.5770001,1163.776034622667,753.8518090636979,192.61048786851032,1066.8942220548251,1061.8856288327554
1533057449.581,1258.870899184667,786.1628945019168,288.91573180276544,1153.79009192453,757.5836685485086
1533057449.585,1150.1897291240002,947.6962663445886,609.936864075137,1144.1404879886065,988.9829938675907
1533057449.589,1059.6205417519998,926.170246284724,310.3156796243152,1081.378514847989,1046.0392056849403
1533057449.593,1032.4572046833339,872.3110854382189,26.747195408296374,970.3487482491967,884.3810208316426
1533057449.5970001,1150.1897291240002,926.170246284724,192.61048786851032,1004.1421358034863,922.4163314514911
1533057449.601,1213.586305498667,969.244341752875,502.92616749282547,1105.522298466355,1131.6267692985402
1533057449.605,1145.6640519340006,969.244341752875,791.8418992955909,1110.3471004343169,1131.6267692985402
1533057449.609,1050.5691873720004,969.244341752875,444.073571614923,1081.378514847989,916.0738671272734
1533057449.613,969.0606283086672,990.7703618127396,128.41064440386117,1037.935523357776,697.3594704566268
1533057449.617,1095.8445071293327,926.170246284724,310.3156796243152,1052.4099292616613,868.5281059086744
1533057449.62,1272.447930754666,883.0961508165731,679.4949126010957,1163.4495827497321,992.1509801421233
1533057449.6239998,1190.9393716913328,915.3851809063696,861.3999478215497,1197.2429703040218,1039.6967413607222
1533057449.6279998,1055.094864562,926.170246284724,631.3368118966866,1095.862807641153,1175.9980524674538
1533057449.6320002,955.4743228100003,861.5480754082865,518.9788677276285,1013.7917397394099,1353.5091522437194
1533057449.6360002,1050.5691873720004,710.777713595547,379.87372815027396,1033.1008345005355,1286.94248982762
1533057449.64,1181.8880173113334,700.0147035656145,395.926428385077,1153.79009192453,840.0032458875763
1533057449.644,1041.5085590633332,829.2369899700677,642.042264544743,1221.3768670331094,795.6254709435099
1533057449.6479998,923.776034622667,1001.555427191094,642.042264544743,1231.0363578583115,922.4163314514911
1533057449.6520002,883.0171181266664,1012.3184372210261,492.2316723193321,1163.4495827497321,916.0738671272734
1533057449.6560001,987.1726109973338,926.170246284724,540.3788155491782,1110.3471004343169,846.3392184366413
1533057449.66,1132.0777464353337,829.2369899700677,497.5789199060788,1192.41816833606,713.2058936044422
1533057449.6629999,1059.6205417519998,829.2369899700677,545.7260631359248,1216.5520650651476,744.9052316752258
1533057449.667,964.5256771899997,958.4813317229429,738.3475084789982,1182.758677510858,1008.0038950650915
1533057449.671,950.9393716913328,990.7703618127396,470.83172449778243,1129.6561951954427,795.6254709435099
1533057449.675,1018.8708991846671,969.244341752875,374.5264805635273,1119.9967043702404,881.2065427819573
1533057449.679,1172.8273890026662,1012.3184372210261,577.8314636055309,1182.758677510858,1201.3614179891724
1533057449.6829998,1104.905135438,1055.3925326891772,706.2421080093922,1153.79009192453,763.9261328727264
1533057449.687,955.4743228100003,904.6221708764375,615.2841116618837,1105.522298466355,561.058159349895
1533057449.691,855.8537810580007,818.4739799401355,642.042264544743,1037.935523357776,960.4516420713397
1533057449.695,864.9051354379999,796.925904531849,700.8948604226455,1013.7917397394099,665.6601323858432
1533057449.699,1068.681170060667,807.7109699102032,706.2421080093922,1042.7603253257378,659.3241598367782
1533057449.7020001,1100.3794582480002,893.8591608465052,898.8525958779024,1100.6876096091148,950.9411914725895
1533057449.706,982.6376598786661,850.7850653783543,1064.7158883381164,1086.2033168159508,954.1156695222747
1533057449.71,860.3794582480003,721.5407236254791,818.6000521784503,975.1735502171584,992.1509801421233
1533057449.714,887.5520692453341,700.0147035656145,604.5896164883903,960.6892574239945,703.7019347808446
1533057449.718,1077.732524440666,796.925904531849,823.9472997651969,1081.378514847989,846.3392184366413
1533057449.7220001,1086.7931527493333,883.0961508165731,1054.01043569006,1182.758677510858,950.9411914725895
1533057449.726,973.5863054986669,818.4739799401355,973.7578919906078,1158.6247807817704,950.9411914725895
1533057449.73,923.776034622667,743.0887990337657,706.2421080093922,1071.7289109120654,881.2065427819573
1533057449.734,923.776034622667,732.3257890038334,535.0315679624315,1062.0694200868634,738.5692591261607
1533057449.738,1064.1462189419992,678.4666281573282,540.3788155491782,1139.3156860206448,725.8908222528778
1533057449.742,1190.9393716913328,732.3257890038334,722.2948082441951,1197.2429703040218,782.947034070227
1533057449.745,1095.8445071293327,872.3110854382189,1021.9159926950169,1192.41816833606,960.4516420713397
1533057449.7489998,941.8880173113336,732.3257890038334,732.9893034176885,1148.9652899565683,928.7587957757089
1533057449.7529998,928.3017118126667,570.7703618127396,438.72632402817635,1100.6876096091148,586.4150330964608
1533057449.7570002,1082.267475559334,603.0814472509584,658.0840073049831,1110.3471004343169,443.777749440664
1533057449.7610002,1209.0606283086672,743.0887990337657,914.9052961127054,1192.41816833606,925.5843177260236
1533057449.765,1118.4914409366668,786.1628945019168,920.2525436994521,1197.2429703040218,1150.641178720888
1533057449.769,1005.2845936860002,840.0,738.3475084789982,1139.3156860206448,1137.9627418476055
1533057449.7729998,978.1119826886664,893.8591608465052,577.8314636055309,1071.7289109120654,903.3954302539908
1533057449.7770002,1082.267475559334,883.0961508165731,588.5369162535873,1052.4099292616613,649.8137092380279
1533057449.7810001,1227.1726109973338,764.6148190936302,770.4419514740413,1148.9652899565683,548.3797224766122
1533057449.785,1141.129100815333,710.777713595547,866.7471954082964,1173.0991866856557,380.379073299097
1533057449.7879999,960.0,786.1628945019168,872.105400469606,1071.7289109120654,557.8901730753626
1533057449.792,937.3623401213339,796.925904531849,818.6000521784503,999.3074469462459,931.9267820502415
1533057449.796,1095.8445071293327,721.5407236254791,652.7367597182364,1033.1008345005355,811.4718940913253
1533057449.8,1181.8880173113334,743.0887990337657,786.4946517088442,1105.522298466355,798.7934572180425
1533057449.804,1068.681170060667,883.0961508165731,957.7051917558049,1134.4809971634045,618.1143711672444
1533057449.8079998,978.1119826886664,840.0,754.3892512392382,1129.6561951954427,580.0790605473958
1533057449.812,950.9393716913328,883.0961508165731,577.8314636055309,1028.2760325325737,843.1712321621088
1533057449.816,1073.2068472506667,1012.3184372210261,588.5369162535873,975.1735502171584,1074.5640657060383
1533057449.82,1172.8273890026662,893.8591608465052,524.3261153143752,1033.1008345005355,859.0176553099241
1533057449.824,1091.318829939333,958.4813317229429,652.7367597182364,1062.0694200868634,919.2483451769587
1533057449.8270001,1023.3965763746667,1044.6295226592447,540.3788155491782,1013.7917397394099,1134.7947555730727
1533057449.831,969.0606283086672,1012.3184372210261,288.91573180276544,902.7619731406174,849.5136964863266
1533057449.835,1027.9222535646663,1173.851809063698,508.28437255413513,931.7206718376667,757.5836685485086
1533057449.839,1172.8273890026662,1130.7777135955469,529.6843203756848,1037.935523357776,792.4509928938246
1533057449.843,1204.5256771899997,1076.9406080974636,706.2421080093922,1052.4099292616613,719.5483579286599
1533057449.8470001,1073.2068472506667,1066.1555427191095,898.8525958779024,1042.7603253257378,878.0385565074248
1533057449.851,987.1726109973338,1012.3184372210261,604.5896164883903,975.1735502171584,982.640529543373
1533057449.855,1064.1462189419992,1033.8444572808905,428.02087138012,922.0710679017432,748.0732179497583
1533057449.859,1181.8880173113334,1055.3925326891772,647.3895121314897,999.3074469462459,849.5136964863266
1533057449.863,1218.1119826886666,1055.3925326891772,700.8948604226455,1066.8942220548251,814.6398803658578
1533057449.867,1154.7154063139997,980.0073517828072,636.6840594834333,1066.8942220548251,304.30196028424706
1533057449.87,1041.5085590633332,1001.555427191094,647.3895121314897,979.9983521851202,748.0732179497583
1533057449.8739998,1086.7931527493333,1055.3925326891772,374.5264805635273,926.8958698697049,1153.8091649954208
1533057449.8779998,1272.447930754666,980.0073517828072,272.8630315679624,989.6578430103224,922.4163314514911
1533057449.8820002,1222.637659878666,1055.3925326891772,636.6840594834333,1091.0380056731913,1017.507853888689
1533057449.8860002,1109.4308126279996,1152.3257890038335,802.5473519436473,1153.79009192453,963.6261201210252
1533057449.89,1036.9828818733336,990.7703618127396,486.87346725802246,999.3074469462459,668.8281186603758
1533057449.894,991.6982881873333,904.6221708764375,401.27367597182365,835.1751980320382,478.6450737859801
1533057449.8979998,1159.2410835039993,1012.3184372210261,599.2314114270806,917.2462659337814,681.5130473088113
1533057449.9020002,1200.0,1055.3925326891772,829.2945473519436,1062.0694200868634,722.7163442031925
1533057449.9060001,1050.5691873720004,958.4813317229429,690.1894077745891,1052.4099292616613,427.9248345176959
1533057449.91,978.1119826886664,883.0961508165731,411.968171145317,970.3487482491967,706.8699210553771
1533057449.9129999,1032.4572046833339,980.0073517828072,342.4210800939212,922.0710679017432,1439.0967158573196
1533057449.917,1154.7154063139997,883.0961508165731,278.2102791547091,984.8330410423606,1356.6771385182521
1533057449.921,1159.2410835039993,710.777713595547,390.56822332376726,1110.3471004343169,1214.0398548624553
1533057449.925,1086.7931527493333,743.0887990337657,444.073571614923,1129.6561951954427,1118.9418406501047
1533057449.929,973.5863054986669,700.0147035656145,315.66292721106186,1028.2760325325737,770.2621054217915
1533057449.9329998,914.7154063139998,678.4666281573282,438.72632402817635,946.2049646308307,795.6254709435099
1533057449.937,1073.2068472506667,646.1555427191093,481.5262196712758,960.6892574239945,1049.2071919594725
1533057449.941,1127.5427953166661,635.3925326891771,481.5262196712758,1047.5851272936995,947.7732051980569
1533057449.945,1000.7589164960007,732.3257890038334,674.136707539786,1100.6876096091148,656.149681787093
1533057449.949,883.0171181266664,495.3851809063698,551.0842681972346,1110.3471004343169,713.2058936044422
1533057449.9529998,846.7931527493334,452.31108543821887,347.7683276806679,1062.0694200868634,833.6607815633585
1533057449.956,1213.586305498667,764.6148190936302,246.11583615966606,1177.9338755428962,599.0934699697436
1533057449.96,1376.6034236253333,775.3998844719845,502.92616749282547,1313.1074257600546,618.1143711672444
1533057449.964,1050.5691873720004,646.1555427191093,690.1894077745891,1182.758677510858,523.0228487300465
1533057449.968,883.0171181266664,484.6221708764375,438.72632402817635,1119.9967043702404,472.3026094617623
1533057449.9720001,792.457204683334,366.16289450191664,278.2102791547091,1148.9652899565683,808.3039078167927
1533057449.976,901.1291008153329,344.6148190936302,304.9684320375685,1148.9652899565683,805.1359215422602
1533057449.98,1055.094864562,344.6148190936302,652.7367597182364,1216.5520650651476,1046.0392056849403
1533057449.984,1000.7589164960007,366.16289450191664,888.147143229846,1337.241322489142,998.4934444663411
1533057449.988,914.7154063139998,236.94060809746372,797.2001043569006,1317.9322277280164,637.135272364745
1533057449.992,887.5520692453341,96.9332563146563,759.7474563005479,1245.5206506514753,855.8496690353916
1533057449.995,1027.9222535646663,140.00735178280732,791.8418992955909,1274.4793493485247,1350.341165969187
1533057449.9989998,1145.6640519340006,183.08144725095835,604.5896164883903,1231.0363578583115,1191.850967390422
1533057450.0029998,1059.6205417519998,312.32578900383345,732.9893034176885,1221.3768670331094,836.8287678378911
1533057450.0070002,1000.7589164960007,376.92590453184897,775.8001565353509,1264.8297454126011,605.4359342939615
1533057450.0110002,973.5863054986669,301.5407236254791,513.6316201408819,1100.6876096091148,903.3954302539908
1533057450.015,1059.6205417519998,333.85180906369783,444.073571614923,1095.862807641153,1182.3405167916717
1533057450.019,1209.0606283086672,452.31108543821887,743.6947560657449,1264.8297454126011,703.7019347808446
1533057450.0229998,1168.3017118126666,506.17024628472404,1032.6104878685103,1288.9636421416885,557.8901730753626
1533057450.0270002,1082.267475559334,506.17024628472404,866.7471954082964,1274.4793493485247,779.7725560205417
1533057450.0310001,1023.3965763746667,495.3851809063698,583.1787111922775,1148.9652899565683,770.2621054217915
1533057450.035,1018.8708991846671,430.78506537835415,518.9788677276285,1076.5537128800272,637.135272364745
1533057450.0379999,1150.1897291240002,312.32578900383345,786.4946517088442,1192.41816833606,637.135272364745
1533057450.042,1168.3017118126666,366.16289450191664,1016.5577876337073,1274.4793493485247,1065.060106882441
1533057450.046,1095.8445071293327,430.78506537835415,957.7051917558049,1269.654547380563,1153.8091649954208
1533057450.05,1027.9222535646663,506.17024628472404,690.1894077745891,1202.0677722719836,1169.6620799183888
1533057450.054,1059.6205417519998,667.7036181273959,658.0840073049831,1177.9338755428962,1144.305206171823
1533057450.0579998,1186.413694501333,775.3998844719845,642.042264544743,1255.1702545873989,776.6045697460092
1533057450.062,1186.413694501333,753.8518090636979,529.6843203756848,1322.7570296959782,820.9823446900756
1533057450.066,1091.318829939333,786.1628945019168,807.894599530394,1298.6231329668906,897.0594577049254
1533057450.07,1018.8708991846671,775.3998844719845,834.6527524132533,1206.8925742399454,931.9267820502415
1533057450.074,1041.5085590633332,786.1628945019168,722.2948082441951,1158.6247807817704,1103.0954175022894
1533057450.0779998,1190.9393716913328,818.4739799401355,882.7998956430994,1240.685961794235,966.7941063955576
1533057450.081,1222.637659878666,721.5407236254791,1096.8103313331594,1332.4165205211802,1134.7947555730727
1533057450.085,1113.965763746667,667.7036181273959,1005.863292460214,1337.241322489142,827.3248090142935
1533057450.089,1055.094864562,581.5554271910938,738.3475084789982,1235.8611598262733,535.7012856033293
1533057450.093,973.5863054986669,495.3851809063698,738.3475084789982,1139.3156860206448,906.5699083036758
1533057450.0970001,1109.4308126279996,495.3851809063698,898.8525958779024,1192.41816833606,938.2627545993065
1533057450.101,1227.1726109973338,613.8444572808907,1054.01043569006,1264.8297454126011,716.3803716541274
1533057450.105,1123.0171181266664,743.0887990337657,1112.8630315679625,1279.314038205765,827.3248090142935
1533057450.109,1032.4572046833339,689.2296381872604,652.7367597182364,1250.345452619437,1023.8503182129068
1533057450.113,969.0606283086672,646.1555427191093,508.28437255413513,1124.831393227481,1017.507853888689
1533057450.117,1100.3794582480002,581.5554271910938,754.3892512392382,1129.6561951954427,1090.4169806290065
1533057450.12,1245.2845936860003,506.17024628472404,856.0527002348031,1216.5520650651476,789.2830066192921
1533057450.1239998,1145.6640519340006,635.3925326891771,1150.3156796243152,1202.0677722719836,836.8287678378911
1533057450.1279998,1009.8102708759999,592.3184372210261,1080.7685885729195,1110.3471004343169,621.2823574417769
1533057450.1320002,919.2503574326674,473.8591608465054,914.9052961127054,999.3074469462459,285.2810590867464
1533057450.1360002,1073.2068472506667,506.17024628472404,888.147143229846,1047.5851272936995,364.5261583761289
1533057450.14,1209.0606283086672,592.3184372210261,1070.063135924863,1163.4495827497321,567.3941318989602
1533057450.144,1082.267475559334,613.8444572808907,1144.9684320375684,1124.831393227481,1236.2287423344885
1533057450.1479998,1000.7589164960007,624.6295226592449,823.9472997651969,1066.8942220548251,1480.300012751701
1533057450.1520002,946.4136945013331,689.2296381872604,535.0315679624315,965.5140593919563,1122.11631869979
1533057450.1560001,1027.9222535646663,689.2296381872604,492.2316723193321,970.3487482491967,725.8908222528778
1533057450.16,1190.9393716913328,753.8518090636979,888.147143229846,1066.8942220548251,681.5130473088113
1533057450.1629999,1145.6640519340006,829.2369899700677,1144.9684320375684,1037.935523357776,1058.717642558223
1533057450.167,1009.8102708759999,743.0887990337657,936.3052439342551,1018.6264285966503,1511.9993508224843
1533057450.171,910.1897291240001,592.3184372210261,577.8314636055309,989.6578430103224,1118.9418406501047
1533057450.175,987.1726109973338,570.7703618127396,540.3788155491782,936.5553606949071,862.1921333596093
1533057450.179,1190.9393716913328,581.5554271910938,663.4422123662927,1018.6264285966503,912.9058808527408
1533057450.1829998,1172.8273890026662,646.1555427191093,791.8418992955909,1071.7289109120654,738.5692591261607
1533057450.187,1018.8708991846671,656.9406080974638,749.0420036524915,1037.935523357776,621.2823574417769
1533057450.191,905.6640519340006,603.0814472509584,502.92616749282547,965.5140593919563,868.5281059086744
1533057450.195,982.6376598786661,656.9406080974638,599.2314114270806,926.8958698697049,1236.2287423344885
1533057450.199,1150.1897291240002,570.7703618127396,706.2421080093922,1066.8942220548251,1347.1731796946544
1533057450.2029998,1118.4914409366668,484.6221708764375,684.8421601878424,1091.0380056731913,1191.850967390422
1533057450.206,1027.9222535646663,527.6962663445886,759.7474563005479,1023.451230564612,868.5281059086744
1533057450.21,923.776034622667,646.1555427191093,567.1369684320375,960.6892574239945,782.947034070227
1533057450.214,937.3623401213339,700.0147035656145,604.5896164883903,951.039653488071,659.3241598367782
1533057450.218,1118.4914409366668,549.244341752875,652.7367597182364,1037.935523357776,944.6052189235244
1533057450.2220001,1136.6034236253333,516.9332563146563,663.4422123662927,1052.4099292616613,1198.186939939487
1533057450.226,978.1119826886664,635.3925326891771,727.6420558309418,1071.7289109120654,1112.6058681010395
1533057450.23,928.3017118126667,635.3925326891771,406.6209235585703,989.6578430103224,1141.130728122138
1533057450.234,937.3623401213339,656.9406080974638,283.56848421601876,873.7933875542897,897.0594577049254
1533057450.238,1032.4572046833339,721.5407236254791,454.77902426297936,941.3801626628689,668.8281186603758
1533057450.242,1100.3794582480002,743.0887990337657,845.3472475867467,1086.2033168159508,925.5843177260236
1533057450.245,1023.3965763746667,710.777713595547,813.2528045917036,1086.2033168159508,659.3241598367782
1533057450.2489998,892.0777464353337,624.6295226592449,401.27367597182365,1023.451230564612,751.2476959994435
1533057450.2529998,869.4308126279996,656.9406080974638,411.968171145317,970.3487482491967,681.5130473088113
1533057450.2570002,1046.034236253333,700.0147035656145,513.6316201408819,1004.1421358034863,672.0025967100611
1533057450.2610002,1077.732524440666,603.0814472509584,572.4842160187842,1066.8942220548251,725.8908222528778
1533057450.265,960.0,613.8444572808907,738.3475084789982,1047.5851272936995,564.2261456244277
1533057450.269,905.6640519340006,764.6148190936302,658.0840073049831,1028.2760325325737,855.8496690353916
1533057450.2729998,855.8537810580007,850.7850653783543,636.6840594834333,936.5553606949071,900.2274439794579
1533057450.2770002,991.6982881873333,807.7109699102032,658.0840073049831,975.1735502171584,859.0176553099241
1533057450.2810001,1159.2410835039993,818.4739799401355,765.0947038872946,1110.3471004343169,916.0738671272734
1533057450.285,1091.318829939333,915.3851809063696,813.2528045917036,1086.2033168159508,782.947034070227
1533057450.2879999,928.3017118126667,915.3851809063696,502.92616749282547,1081.378514847989,824.1503309646082
1533057450.292,919.2503574326674,861.5480754082865,272.8630315679624,1008.9669377714481,1169.6620799183888
1533057450.296,1064.1462189419992,796.925904531849,438.72632402817635,984.8330410423606,1220.3758274115203
1533057450.3,1109.4308126279996,786.1628945019168,545.7260631359248,1086.2033168159508,1198.186939939487
1533057450.304,1032.4572046833339,947.6962663445886,647.3895121314897,1066.8942220548251,1188.6829811158896
1533057450.3079998,1009.8102708759999,1066.1555427191095,743.6947560657449,1042.7603253257378,1233.0607560599558
1533057450.312,991.6982881873333,850.7850653783543,363.8210279154709,926.8958698697049,988.9829938675907
1533057450.316,1014.3359480659994,721.5407236254791,224.71588833811637,878.6181895222514,966.7941063955576
1533057450.32,1100.3794582480002,775.3998844719845,406.6209235585703,960.6892574239945,1160.1516293196385
1533057450.324,1077.732524440666,840.0,454.77902426297936,1004.1421358034863,925.5843177260236
1533057450.3279998,964.5256771899997,818.4739799401355,304.9684320375685,979.9983521851202,687.8490198578764
1533057450.331,878.4914409366668,700.0147035656145,337.07383250717453,883.4528783794917,1090.4169806290065
1533057450.335,1055.094864562,710.777713595547,497.5789199060788,907.5867751085792,1261.5856160810542
1533057450.339,1200.0,775.3998844719845,738.3475084789982,1028.2760325325737,950.9411914725895
1533057450.343,1041.5085590633332,764.6148190936302,802.5473519436473,975.1735502171584,919.2483451769587
1533057450.3470001,964.5256771899997,732.3257890038334,679.4949126010957,922.0710679017432,874.8705702328922
1533057450.351,864.9051354379999,689.2296381872604,460.12627184972604,840.0,725.8908222528778
1533057450.355,928.3017118126667,667.7036181273959,583.1787111922775,791.7223196525465,637.135272364745
1533057450.359,1123.0171181266664,603.0814472509584,706.2421080093922,840.0,757.5836685485086
1533057450.363,1077.732524440666,473.8591608465054,786.4946517088442,888.2776803474535,900.2274439794579
1533057450.367,1014.3359480659994,301.5407236254791,1021.9159926950169,1023.451230564612,878.0385565074248
1533057450.37,1154.7154063139997,280.01470356561464,775.8001565353509,1173.0991866856557,1118.9418406501047
1533057450.3739998,1177.362340121334,549.244341752875,593.8841638403339,1042.7603253257378,1264.7536023555867
1533057450.3779998,1000.7589164960007,656.9406080974638,786.4946517088442,685.5173550217158,1001.6614307408736
1533057450.3820002,1000.7589164960007,689.2296381872604,775.8001565353509,738.6198373371311,779.7725560205417
1533057450.3860002,937.3623401213339,829.2369899700677,545.7260631359248,888.2776803474535,944.6052189235244
1533057450.39,742.6469338073341,743.0887990337657,288.91573180276544,690.3421569896776,985.8150075930582
1533057450.394,747.1726109973338,710.777713595547,294.2629793895121,569.6528995656831,1195.0189536649546
1533057450.3979998,801.5085590633332,915.3851809063696,235.41038351160967,497.2413224891421,1150.641178720888
1533057450.4020002,860.3794582480003,893.8591608465052,395.926428385077,637.2396746742623,763.9261328727264
1533057450.4060001,806.0342362533328,1012.3184372210261,781.1474041220976,656.548769435388,1131.6267692985402
1533057450.41,584.1554928706673,1109.2296381872604,460.12627184972604,424.8297454126011,1296.4529404263703
1533057450.4129999,638.4914409366668,969.244341752875,337.07383250717453,516.5504172502677,1030.1927825371247
1533057450.417,824.1554928706673,980.0073517828072,486.87346725802246,521.3851061075081,1071.3960794315058
1533057450.421,901.1291008153329,1044.6295226592447,615.2841116618837,535.8595120113935,950.9411914725895
1533057450.425,833.2068472506666,990.7703618127396,711.5893555961388,651.7239674674262,982.640529543373
1533057450.429,706.4136945013331,926.170246284724,492.2316723193321,632.4148727063006,944.6052189235244
1533057450.4329998,769.8102708759999,893.8591608465052,363.8210279154709,574.4875884229234,795.6254709435099
1533057450.437,969.0606283086672,893.8591608465052,294.2629793895121,695.176845846918,998.4934444663411
1533057450.441,1050.5691873720004,990.7703618127396,353.11557526741456,815.8661032709125,1042.8712194104075
1533057450.445,996.223965377333,1076.9406080974636,700.8948604226455,796.5570085097869,1233.0607560599558
1533057450.449,928.3017118126667,980.0073517828072,540.3788155491782,724.1355445439673,1172.8300661929213
1533057450.4529998,892.0777464353337,840.0,283.56848421601876,724.1355445439673,675.1705829845936
1533057450.456,1009.8102708759999,786.1628945019168,347.7683276806679,806.2066124457103,592.7574974206786
1533057450.46,1123.0171181266664,872.3110854382189,567.1369684320375,849.6594908252022,719.5483579286599
1533057450.464,1091.318829939333,969.244341752875,700.8948604226455,859.3090947611257,922.4163314514911
1533057450.468,1000.7589164960007,883.0961508165731,449.4208192016697,830.3503960640764,1229.8862780102706
1533057450.4720001,864.9051354379999,786.1628945019168,267.51578398121575,704.8264497828416,1077.7385437557236
1533057450.476,973.5863054986669,850.7850653783543,513.6316201408819,757.9289320982568,859.0176553099241
1533057450.48,1150.1897291240002,947.6962663445886,770.4419514740413,897.927284283377,820.9823446900756
1533057450.484,1113.965763746667,969.244341752875,786.4946517088442,868.9685855863279,969.9620926700901
1533057450.488,1000.7589164960007,883.0961508165731,690.1894077745891,786.8975176845847,757.5836685485086
1533057450.492,914.7154063139998,915.3851809063696,642.042264544743,724.1355445439673,741.7372454006932
1533057450.495,991.6982881873333,936.9332563146565,781.1474041220976,820.6909052388743,700.5274567311593
1533057450.4989998,1123.0171181266664,893.8591608465052,957.7051917558049,936.5553606949071,630.7928080405272
1533057450.5029998,1082.267475559334,947.6962663445886,1005.863292460214,979.9983521851202,868.5281059086744
1533057450.5070002,1009.8102708759999,958.4813317229429,877.4526480563527,965.5140593919563,767.0941191472589
1533057450.5110002,964.5256771899997,926.170246284724,567.1369684320375,922.0710679017432,859.0176553099241
1533057450.515,1050.5691873720004,926.170246284724,449.4208192016697,917.2462659337814,668.8281186603758
1533057450.519,1222.637659878666,936.9332563146565,668.7894599530393,946.2049646308307,545.2052444269269
1533057450.5229998,1132.0777464353337,926.170246284724,829.2945473519436,994.4826449782842,890.7169933807077
1533057450.5270002,969.0606283086672,818.4739799401355,647.3895121314897,1028.2760325325737,922.4163314514911
1533057450.5310001,896.6034236253333,678.4666281573282,208.66318810331333,1004.1421358034863,871.6960921832069
1533057450.535,978.1119826886664,667.7036181273959,219.35768327680663,999.3074469462459,1122.11631869979
1533057450.5379999,1150.1897291240002,710.777713595547,326.3683798591182,1095.862807641153,1233.0607560599558
1533057450.542,1159.2410835039993,786.1628945019168,278.2102791547091,1105.522298466355,1080.9065300302561
1533057450.546,1059.6205417519998,915.3851809063696,513.6316201408819,1013.7917397394099,903.3954302539908
1533057450.55,973.5863054986669,936.9332563146565,444.073571614923,984.8330410423606,1052.381670009158
1533057450.554,1100.3794582480002,883.0961508165731,369.16827550221757,1052.4099292616613,792.4509928938246
1533057450.5579998,1308.681170060667,947.6962663445886,663.4422123662927,1119.9967043702404,830.492795288826
1533057450.562,1209.0606283086672,990.7703618127396,765.0947038872946,1148.9652899565683,1014.3398676141564
1533057450.566,1050.5691873720004,872.3110854382189,567.1369684320375,1148.9652899565683,450.1137219897291
1533057450.57,1009.8102708759999,786.1628945019168,422.67362379337334,1037.935523357776,446.9457357151966
1533057450.574,1055.094864562,818.4739799401355,470.83172449778243,989.6578430103224,564.2261456244277
1533057450.5779998,1240.7496425673326,764.6148190936302,438.72632402817635,1062.0694200868634,687.8490198578764
1533057450.581,1313.2068472506667,807.7109699102032,620.6313592486304,1134.4809971634045,1147.4731924463556
1533057450.585,1172.8273890026662,883.0961508165731,802.5473519436473,1148.9652899565683,1090.4169806290065
1533057450.589,1014.3359480659994,743.0887990337657,556.4315157839812,1042.7603253257378,519.8483706803612
1533057450.593,991.6982881873333,646.1555427191093,668.7894599530393,917.2462659337814,1033.3607688116572
1533057450.5970001,1127.5427953166661,710.777713595547,781.1474041220976,1023.451230564612,1486.6424770759188
1533057450.601,1150.1897291240002,721.5407236254791,791.8418992955909,1221.3768670331094,744.9052316752258
1533057450.605,1041.5085590633332,753.8518090636979,1021.9159926950169,1260.0049434446394,725.8908222528778
1533057450.609,950.9393716913328,796.925904531849,888.147143229846,1216.5520650651476,1223.5503054612057
1533057450.613,987.1726109973338,796.925904531849,749.0420036524915,1129.6561951954427,919.2483451769587
1533057450.617,1159.2410835039993,818.4739799401355,984.4633446386642,1119.9967043702404,446.9457357151966
1533057450.621,1254.3359480659994,990.7703618127396,1225.2209757370206,1255.1702545873989,640.3032586392775
1533057450.6239998,1168.3017118126666,990.7703618127396,1155.673884685625,1274.4793493485247,713.2058936044422
1533057450.6279998,1077.732524440666,915.3851809063696,995.1578398121576,1187.5834794788198,767.0941191472589
1533057450.6320002,996.223965377333,947.6962663445886,1075.4103835116098,1081.378514847989,931.9267820502415
1533057450.6360002,1104.905135438,936.9332563146565,1144.9684320375684,1052.4099292616613,637.135272364745
1533057450.64,1186.413694501333,872.3110854382189,1369.6843203756848,1124.831393227481,814.6398803658578
1533057450.644,1050.5691873720004,850.7850653783543,1482.042264544743,1158.6247807817704,792.4509928938246
1533057450.6479998,1005.2845936860002,926.170246284724,1268.02087138012,1158.6247807817704,893.8849796552404
1533057450.6520002,991.6982881873333,1055.3925326891772,1214.5264805635272,1086.2033168159508,1496.1529276746692
1533057450.6560001,1091.318829939333,958.4813317229429,1310.8317244977825,1057.2446181189016,893.8849796552404
1533057450.66,1195.4743228100003,829.2369899700677,1487.3895121314897,1177.9338755428962,516.6803844058287
1533057450.6629999,1113.965763746667,936.9332563146565,1680.0,1211.7272630971859,1039.6967413607222
1533057450.667,1068.681170060667,1001.555427191094,1492.7367597182363,1144.1404879886065,928.7587957757089
1533057450.671,1000.7589164960007,915.3851809063696,1134.262979389512,1037.935523357776,827.3248090142935
1533057450.675,1091.318829939333,947.6962663445886,1332.2316723193321,1023.451230564612,1004.8294170154062
1533057450.679,1236.223965377333,936.9332563146565,1316.178972084529,1047.5851272936995,912.9058808527408
1533057450.6829998,1086.7931527493333,893.8591608465052,1251.97912861988,1047.5851272936995,564.2261456244277
1533057450.687,960.0,1023.0814472509584,1332.2316723193321,1052.4099292616613,786.1150203447596
1533057450.691,955.4743228100003,958.4813317229429,957.7051917558049,1028.2760325325737,808.3039078167927
1533057450.695,1046.034236253333,904.6221708764375,925.5997912861988,1018.6264285966503,608.603920568494
1533057450.699,1236.223965377333,980.0073517828072,1064.7158883381164,1105.522298466355,884.3810208316426
1533057450.7029998,1181.8880173113334,893.8591608465052,1032.6104878685103,1139.3156860206448,722.7163442031925
1533057450.706,1009.8102708759999,796.925904531849,882.7998956430994,1086.2033168159508,687.8490198578764
1533057450.71,982.6376598786661,786.1628945019168,486.87346725802246,1013.7917397394099,678.3385692591261
1533057450.714,1036.9828818733336,743.0887990337657,593.8841638403339,955.8644554560327,665.6601323858432
1533057450.718,1145.6640519340006,538.4813317229429,823.9472997651969,1018.6264285966503,719.5483579286599
1533057450.7220001,1159.2410835039993,560.0073517828073,898.8525958779024,1100.6876096091148,836.8287678378911
1533057450.726,991.6982881873333,613.8444572808907,973.7578919906078,1066.8942220548251,767.0941191472589
1533057450.73,842.2674755593338,430.78506537835415,797.2001043569006,970.3487482491967,795.6254709435099
1533057450.734,941.8880173113336,549.244341752875,840.0,1004.1421358034863,1052.381670009158
1533057450.738,1104.905135438,603.0814472509584,850.7054526480564,1110.3471004343169,900.2274439794579
1533057450.742,1086.7931527493333,549.244341752875,893.5053482911558,1163.4495827497321,830.492795288826
1533057450.746,991.6982881873333,581.5554271910938,882.7998956430994,1163.4495827497321,919.2483451769587
1533057450.7489998,806.0342362533328,538.4813317229429,588.5369162535873,1110.3471004343169,637.135272364745
1533057450.7529998,792.457204683334,538.4813317229429,535.0315679624315,1071.7289109120654,757.5836685485086
1533057450.7570002,1041.5085590633332,560.0073517828073,732.9893034176885,1086.2033168159508,1239.3967286090212
1533057450.7610002,1050.5691873720004,527.6962663445886,807.894599530394,1202.0677722719836,1182.3405167916717
1533057450.765,905.6640519340006,484.6221708764375,684.8421601878424,1250.345452619437,897.0594577049254
1533057450.769,855.8537810580007,420.0000000000001,460.12627184972604,1086.2033168159508,640.3032586392775
1533057450.7729998,864.9051354379999,484.6221708764375,449.4208192016697,1013.7917397394099,646.6457229634954
1533057450.7770002,1050.5691873720004,516.9332563146563,561.7787633707279,1062.0694200868634,722.7163442031925
1533057450.7810001,1132.0777464353337,441.54807540828654,545.7260631359248,1110.3471004343169,450.1137219897291
1533057450.785,941.8880173113336,463.0961508165729,850.7054526480564,1081.378514847989,637.135272364745
1533057450.7879999,828.681170060667,452.31108543821887,941.6524915210018,999.3074469462459,1195.0189536649546
1533057450.792,873.9657637466672,323.08879903376567,663.4422123662927,965.5140593919563,849.5136964863266
1533057450.796,969.0606283086672,269.2516935356825,652.7367597182364,994.4826449782842,624.4568354914621
1533057450.8,1014.3359480659994,323.08879903376567,765.0947038872946,1105.522298466355,567.3941318989602
1533057450.804,932.8273890026662,366.16289450191664,850.7054526480564,1091.0380056731913,881.2065427819573
1533057450.8079998,806.0342362533328,301.5407236254791,690.1894077745891,965.5140593919563,1084.0745163047886
1533057450.812,792.457204683334,258.46662815732816,433.3790764414297,883.4528783794917,827.3248090142935
1533057450.816,955.4743228100003,420.0000000000001,561.7787633707279,941.3801626628689,697.3594704566268
1533057450.82,1100.3794582480002,516.9332563146563,631.3368118966866,1013.7917397394099,678.3385692591261
1533057450.824,996.223965377333,527.6962663445886,679.4949126010957,1028.2760325325737,840.0032458875763
1533057450.8279998,910.1897291240001,549.244341752875,642.042264544743,1018.6264285966503,1217.2078411369878
1533057450.831,923.776034622667,613.8444572808907,454.77902426297936,955.8644554560327,1131.6267692985402
1533057450.835,991.6982881873333,613.8444572808907,609.936864075137,984.8330410423606,947.7732051980569
1533057450.839,1073.2068472506667,581.5554271910938,738.3475084789982,1091.0380056731913,830.492795288826
1533057450.843,969.0606283086672,570.7703618127396,722.2948082441951,1139.3156860206448,687.8490198578764
1533057450.8470001,873.9657637466672,409.2369899700677,572.4842160187842,1105.522298466355,1087.2489943544738
1533057450.851,810.5691873720004,280.01470356561464,224.71588833811637,999.3074469462459,1001.6614307408736
1533057450.855,928.3017118126667,420.0000000000001,304.9684320375685,994.4826449782842,729.0588085274103
1533057450.859,1104.905135438,592.3184372210261,545.7260631359248,1081.378514847989,909.7378945782085
1533057450.863,1055.094864562,721.5407236254791,625.98956430994,1081.378514847989,884.3810208316426
1533057450.867,991.6982881873333,796.925904531849,625.98956430994,1091.0380056731913,738.5692591261607
1533057450.871,901.1291008153329,743.0887990337657,347.7683276806679,1037.935523357776,881.2065427819573
1533057450.8739998,928.3017118126667,721.5407236254791,390.56822332376726,1062.0694200868634,900.2274439794579
1533057450.8779998,1095.8445071293327,710.777713595547,433.3790764414297,1115.1719024022786,954.1156695222747
1533057450.8820002,1036.9828818733336,667.7036181273959,326.3683798591182,1105.522298466355,1125.2843049743224
1533057450.8860002,923.776034622667,753.8518090636979,422.67362379337334,1148.9652899565683,1084.0745163047886
1533057450.89,860.3794582480003,753.8518090636979,342.4210800939212,1086.2033168159508,1058.717642558223
1533057450.894,937.3623401213339,721.5407236254791,401.27367597182365,999.3074469462459,814.6398803658578
1533057450.8979998,1113.965763746667,796.925904531849,593.8841638403339,1052.4099292616613,846.3392184366413
1533057450.9020002,1077.732524440666,818.4739799401355,652.7367597182364,1129.6561951954427,944.6052189235244
1533057450.9060001,1000.7589164960007,786.1628945019168,588.5369162535873,1115.1719024022786,998.4934444663411
1533057450.91,901.1291008153329,796.925904531849,551.0842681972346,999.3074469462459,995.3189664166558
1533057450.9129999,896.6034236253333,818.4739799401355,700.8948604226455,936.5553606949071,605.4359342939615
1533057450.917,1077.732524440666,732.3257890038334,679.4949126010957,1023.451230564612,675.1705829845936
1533057450.921,1064.1462189419992,624.6295226592449,545.7260631359248,1110.3471004343169,595.9254836952111
1533057450.925,932.8273890026662,710.777713595547,770.4419514740413,1076.5537128800272,817.8143584155431
1533057450.929,796.9828818733336,613.8444572808907,567.1369684320375,975.1735502171584,1229.8862780102706
1533057450.9329998,860.3794582480003,549.244341752875,417.32637620662666,931.7206718376667,1052.381670009158
1533057450.937,1118.4914409366668,721.5407236254791,535.0315679624315,1033.1008345005355,748.0732179497583
1533057450.941,1095.8445071293327,818.4739799401355,716.9475606574484,1129.6561951954427,672.0025967100611
1533057450.945,928.3017118126667,807.7109699102032,877.4526480563527,1134.4809971634045,1014.3398676141564
1533057450.949,901.1291008153329,689.2296381872604,561.7787633707279,1071.7289109120654,998.4934444663411
1533057450.9529998,873.9657637466672,581.5554271910938,422.67362379337334,989.6578430103224,1008.0038950650915
1533057450.956,1014.3359480659994,592.3184372210261,572.4842160187842,1013.7917397394099,859.0176553099241
1533057450.96,1077.732524440666,592.3184372210261,535.0315679624315,1057.2446181189016,763.9261328727264
1533057450.964,946.4136945013331,603.0814472509584,636.6840594834333,1008.9669377714481,988.9829938675907
1533057450.968,887.5520692453341,581.5554271910938,540.3788155491782,979.9983521851202,1141.130728122138
1533057450.9720001,905.6640519340006,581.5554271910938,299.62118445082183,979.9983521851202,1001.6614307408736
1533057450.976,1055.094864562,603.0814472509584,422.67362379337334,1008.9669377714481,801.961443492575
1533057450.98,1227.1726109973338,613.8444572808907,593.8841638403339,1153.79009192453,801.961443492575
1533057450.984,1113.965763746667,624.6295226592449,743.6947560657449,1206.8925742399454,548.3797224766122
1533057450.988,941.8880173113336,613.8444572808907,674.136707539786,1110.3471004343169,589.5830193709934
1533057450.992,937.3623401213339,581.5554271910938,454.77902426297936,989.6578430103224,656.149681787093
1533057450.996,1077.732524440666,721.5407236254791,716.9475606574484,1037.935523357776,326.49084775628023
1533057450.9989998,1195.4743228100003,850.7850653783543,1086.115836159666,1168.274384717694,377.21108702456445
1533057451.0029998,1059.6205417519998,732.3257890038334,1075.4103835116098,1110.3471004343169,431.09282079222834
1533057451.0070002,928.3017118126667,635.3925326891771,877.4526480563527,965.5140593919563,459.62417258847944
1533057451.0110002,910.1897291240001,560.0073517828073,599.2314114270806,888.2776803474535,722.7163442031925
1533057451.015,1014.3359480659994,484.6221708764375,749.0420036524915,960.6892574239945,741.7372454006932
1533057451.019,1159.2410835039993,603.0814472509584,947.0106965823115,1095.862807641153,1058.717642558223
1533057451.0229998,1100.3794582480002,700.0147035656145,984.4633446386642,1139.3156860206448,1255.249643531989
1533057451.0270002,1018.8708991846671,743.0887990337657,989.8105922254109,1091.0380056731913,1020.6823319383743
1533057451.0310001,950.9393716913328,807.7109699102032,786.4946517088442,1008.9669377714481,1068.2280931569733
1533057451.035,1059.6205417519998,818.4739799401355,786.4946517088442,1023.451230564612,960.4516420713397
1533057451.0379999,1227.1726109973338,829.2369899700677,1027.2632402817637,1168.274384717694,944.6052189235244
1533057451.042,1113.965763746667,861.5480754082865,1203.8210279154712,1206.8925742399454,1096.7529531780715
1533057451.046,987.1726109973338,796.925904531849,1032.6104878685103,1119.9967043702404,1109.437881826507
1533057451.05,946.4136945013331,753.8518090636979,658.0840073049831,1008.9669377714481,966.7941063955576
1533057451.054,960.0,861.5480754082865,818.6000521784503,946.2049646308307,985.8150075930582
1533057451.0579998,1091.318829939333,840.0,936.3052439342551,965.5140593919563,1153.8091649954208
1533057451.062,1064.1462189419992,786.1628945019168,925.5997912861988,1004.1421358034863,1112.6058681010395
1533057451.066,946.4136945013331,818.4739799401355,1075.4103835116098,1018.6264285966503,1014.3398676141564
1533057451.07,932.8273890026662,775.3998844719845,743.6947560657449,984.8330410423606,817.8143584155431
1533057451.074,996.223965377333,743.0887990337657,615.2841116618837,989.6578430103224,881.2065427819573
1533057451.0779998,1150.1897291240002,732.3257890038334,775.8001565353509,1081.378514847989,1207.6973905382374
1533057451.081,1154.7154063139997,775.3998844719845,781.1474041220976,1095.862807641153,1334.4947428213716
1533057451.085,1050.5691873720004,893.8591608465052,711.5893555961388,1076.5537128800272,1049.2071919594725
1533057451.089,955.4743228100003,893.8591608465052,540.3788155491782,1023.451230564612,713.2058936044422
1533057451.093,937.3623401213339,786.1628945019168,540.3788155491782,975.1735502171584,586.4150330964608
1533057451.0970001,1082.267475559334,753.8518090636979,791.8418992955909,1076.5537128800272,792.4509928938246
1533057451.101,1109.4308126279996,786.1628945019168,893.5053482911558,1168.274384717694,833.6607815633585
1533057451.105,1018.8708991846671,807.7109699102032,872.105400469606,1134.4809971634045,805.1359215422602
1533057451.109,923.776034622667,667.7036181273959,583.1787111922775,1047.5851272936995,827.3248090142935
1533057451.113,937.3623401213339,646.1555427191093,497.5789199060788,984.8330410423606,548.3797224766122
1533057451.117,1132.0777464353337,721.5407236254791,663.4422123662927,1081.378514847989,773.4365834714768
1533057451.121,1109.4308126279996,753.8518090636979,732.9893034176885,1158.6247807817704,925.5843177260236
1533057451.1239998,937.3623401213339,807.7109699102032,989.8105922254109,1119.9967043702404,1261.5856160810542
1533057451.1279998,887.5520692453341,753.8518090636979,888.147143229846,1105.522298466355,1416.9078283852866
1533057451.1320002,946.4136945013331,753.8518090636979,732.9893034176885,1105.522298466355,916.0738671272734
1533057451.1360002,1127.5427953166661,818.4739799401355,850.7054526480564,1163.4495827497321,618.1143711672444
1533057451.14,1186.413694501333,775.3998844719845,882.7998956430994,1206.8925742399454,513.5123981312962
1533057451.144,1091.318829939333,775.3998844719845,829.2945473519436,1163.4495827497321,754.415682273976
1533057451.1479998,1005.2845936860002,796.925904531849,556.4315157839812,1066.8942220548251,982.640529543373
1533057451.1520002,1005.2845936860002,700.0147035656145,331.71562744586487,979.9983521851202,868.5281059086744
1533057451.1560001,1095.8445071293327,592.3184372210261,513.6316201408819,1013.7917397394099,903.3954302539908
1533057451.16,1118.4914409366668,603.0814472509584,508.28437255413513,1057.2446181189016,1156.983643045106
1533057451.1629999,1014.3359480659994,635.3925326891771,390.56822332376726,1042.7603253257378,687.8490198578764
1533057451.167,941.8880173113336,656.9406080974638,508.28437255413513,1023.451230564612,573.7365962231779
1533057451.171,919.2503574326674,603.0814472509584,390.56822332376726,907.5867751085792,1131.6267692985402
1533057451.175,1050.5691873720004,570.7703618127396,363.8210279154709,897.927284283377,843.1712321621088
1533057451.179,1209.0606283086672,624.6295226592449,625.98956430994,979.9983521851202,935.094768324774
1533057451.1829998,1095.8445071293327,516.9332563146563,609.936864075137,979.9983521851202,969.9620926700901
1533057451.187,937.3623401213339,409.2369899700677,374.5264805635273,931.7206718376667,760.7581465981939
1533057451.191,842.2674755593338,398.4739799401354,299.62118445082183,806.2066124457103,1118.9418406501047
1533057451.195,955.4743228100003,344.6148190936302,433.3790764414297,796.5570085097869,906.5699083036758
1533057451.199,1190.9393716913328,430.78506537835415,502.92616749282547,960.6892574239945,637.135272364745
1533057451.2029998,1195.4743228100003,538.4813317229429,545.7260631359248,1066.8942220548251,1042.8712194104075
1533057451.206,955.4743228100003,538.4813317229429,572.4842160187842,999.3074469462459,1277.4320392288696
1533057451.21,688.3017118126667,538.4813317229429,363.8210279154709,753.1041301302951,1096.7529531780715
1533057451.214,837.7325244406662,570.7703618127396,363.8210279154709,786.8975176845847,599.0934699697436
1533057451.218,1136.6034236253333,570.7703618127396,513.6316201408819,1023.451230564612,976.3045569943079
1533057451.2220001,1086.7931527493333,506.17024628472404,551.0842681972346,1066.8942220548251,1277.4320392288696
1533057451.226,982.6376598786661,441.54807540828654,470.83172449778243,979.9983521851202,472.3026094617623
1533057451.23,964.5256771899997,441.54807540828654,310.3156796243152,936.5553606949071,389.8895238978473
1533057451.234,1014.3359480659994,430.78506537835415,417.32637620662666,1008.9669377714481,1011.171881339624
1533057451.238,1154.7154063139997,473.8591608465054,674.136707539786,1047.5851272936995,1033.3607688116572
1533057451.242,1159.2410835039993,516.9332563146563,882.7998956430994,1110.3471004343169,513.5123981312962
1533057451.246,1055.094864562,495.3851809063698,904.1998434646491,1091.0380056731913,580.0790605473958
1533057451.2489998,941.8880173113336,484.6221708764375,583.1787111922775,984.8330410423606,595.9254836952111
1533057451.2529998,973.5863054986669,560.0073517828073,604.5896164883903,1013.7917397394099,529.3588212791116
1533057451.2570002,1127.5427953166661,527.6962663445886,727.6420558309418,1095.862807641153,738.5692591261607
1533057451.2610002,1150.1897291240002,516.9332563146563,781.1474041220976,1144.1404879886065,741.7372454006932
1533057451.265,1059.6205417519998,603.0814472509584,818.6000521784503,1173.0991866856557,1153.8091649954208
1533057451.269,969.0606283086672,506.17024628472404,460.12627184972604,1129.6561951954427,586.4150330964608
1533057451.2729998,1009.8102708759999,506.17024628472404,481.5262196712758,1086.2033168159508,405.7359470456627
1533057451.2770002,1200.0,538.4813317229429,716.9475606574484,1124.831393227481,1195.0189536649546
1533057451.2810001,1254.3359480659994,430.78506537835415,470.83172449778243,1192.41816833606,998.4934444663411
1533057451.285,1136.6034236253333,570.7703618127396,465.4735194364727,1119.9967043702404,599.0934699697436
1533057451.289,978.1119826886664,786.1628945019168,759.7474563005479,1018.6264285966503,732.2267948019429
1533057451.292,914.7154063139998,743.0887990337657,652.7367597182364,1004.1421358034863,817.8143584155431
1533057451.296,1059.6205417519998,581.5554271910938,663.4422123662927,1076.5537128800272,801.961443492575
1533057451.3,1127.5427953166661,646.1555427191093,781.1474041220976,1168.274384717694,1036.5287550861897
1533057451.304,1064.1462189419992,764.6148190936302,732.9893034176885,1187.5834794788198,1023.8503182129068
1533057451.3079998,1046.034236253333,764.6148190936302,620.6313592486304,1139.3156860206448,678.3385692591261
1533057451.312,1113.965763746667,807.7109699102032,754.3892512392382,1095.862807641153,646.6457229634954
1533057451.316,1240.7496425673326,764.6148190936302,909.5580485259587,1226.2115558903497,618.1143711672444
1533057451.32,1222.637659878666,775.3998844719845,920.2525436994521,1356.5504172502679,465.9601451375445
1533057451.324,1086.7931527493333,807.7109699102032,882.7998956430994,1293.798330998929,903.3954302539908
1533057451.3279998,987.1726109973338,700.0147035656145,529.6843203756848,1250.345452619437,916.0738671272734
1533057451.331,946.4136945013331,581.5554271910938,379.87372815027396,1153.79009192453,599.0934699697436
1533057451.335,1086.7931527493333,667.7036181273959,749.0420036524915,1134.4809971634045,716.3803716541274
1533057451.339,1240.7496425673326,840.0,1059.3686407513696,1327.5917185532185,973.1300789446226
1533057451.343,1177.362340121334,775.3998844719845,925.5997912861988,1428.9619943268087,1321.809814172936
1533057451.3470001,996.223965377333,667.7036181273959,588.5369162535873,1216.5520650651476,1283.7745035530877
1533057451.351,833.2068472506666,624.6295226592449,411.968171145317,941.3801626628689,947.7732051980569
1533057451.355,964.5256771899997,656.9406080974638,636.6840594834333,1018.6264285966503,675.1705829845936
1533057451.359,1181.8880173113334,678.4666281573282,722.2948082441951,1211.7272630971859,893.8849796552404
1533057451.363,1113.965763746667,700.0147035656145,749.0420036524915,1202.0677722719836,982.640529543373
1533057451.367,964.5256771899997,721.5407236254791,786.4946517088442,1119.9967043702404,722.7163442031925
1533057451.371,946.4136945013331,656.9406080974638,444.073571614923,979.9983521851202,960.4516420713397
1533057451.3739998,1046.034236253333,656.9406080974638,529.6843203756848,965.5140593919563,868.5281059086744
1533057451.3779998,1177.362340121334,603.0814472509584,652.7367597182364,1047.5851272936995,801.961443492575
1533057451.3820002,1100.3794582480002,484.6221708764375,567.1369684320375,1047.5851272936995,748.0732179497583
1533057451.3860002,973.5863054986669,613.8444572808907,620.6313592486304,1004.1421358034863,621.2823574417769
1533057451.39,941.8880173113336,700.0147035656145,342.4210800939212,926.8958698697049,1134.7947555730727
1533057451.394,996.223965377333,678.4666281573282,331.71562744586487,955.8644554560327,1267.9280804052719
1533057451.3979998,1177.362340121334,624.6295226592449,497.5789199060788,1095.862807641153,675.1705829845936
1533057451.4020002,1177.362340121334,581.5554271910938,486.87346725802246,1182.758677510858,348.6797352283134
1533057451.4060001,1018.8708991846671,678.4666281573282,529.6843203756848,1134.4809971634045,427.9248345176959
1533057451.41,946.4136945013331,689.2296381872604,433.3790764414297,1013.7917397394099,706.8699210553771
1533057451.414,996.223965377333,743.0887990337657,502.92616749282547,989.6578430103224,798.7934572180425
1533057451.417,1136.6034236253333,775.3998844719845,615.2841116618837,1100.6876096091148,817.8143584155431
1533057451.421,1113.965763746667,710.777713595547,524.3261153143752,1187.5834794788198,751.2476959994435
1533057451.425,996.223965377333,592.3184372210261,577.8314636055309,1129.6561951954427,805.1359215422602
1533057451.429,969.0606283086672,484.6221708764375,428.02087138012,1052.4099292616613,893.8849796552404
1533057451.4329998,1018.8708991846671,646.1555427191093,315.66292721106186,979.9983521851202,1103.0954175022894
1533057451.437,1127.5427953166661,689.2296381872604,299.62118445082183,1037.935523357776,1061.8856288327554
1533057451.441,1123.0171181266664,560.0073517828073,310.3156796243152,1124.831393227481,694.1914841820942
1533057451.445,1023.3965763746667,581.5554271910938,347.7683276806679,1013.7917397394099,741.7372454006932
1533057451.449,969.0606283086672,624.6295226592449,160.50508739890427,936.5553606949071,957.2836557968072
1533057451.4529998,1018.8708991846671,710.777713595547,358.4737803287242,931.7206718376667,973.1300789446226
1533057451.456,1141.129100815333,753.8518090636979,599.2314114270806,1018.6264285966503,992.1509801421233
1533057451.46,1145.6640519340006,656.9406080974638,765.0947038872946,1124.831393227481,1312.3058553493383
1533057451.464,1068.681170060667,613.8444572808907,765.0947038872946,1115.1719024022786,1068.2280931569733
1533057451.468,928.3017118126667,603.0814472509584,411.968171145317,1062.0694200868634,782.947034070227
1533057451.4720001,950.9393716913328,700.0147035656145,497.5789199060788,1052.4099292616613,985.8150075930582
1533057451.476,1127.5427953166661,743.0887990337657,850.7054526480564,1110.3471004343169,1027.0183044874395
1533057451.48,1095.8445071293327,646.1555427191093,775.8001565353509,1129.6561951954427,998.4934444663411
1533057451.484,964.5256771899997,678.4666281573282,749.0420036524915,1100.6876096091148,817.8143584155431
1533057451.488,896.6034236253333,775.3998844719845,893.5053482911558,1062.0694200868634,820.9823446900756
1533057451.492,937.3623401213339,807.7109699102032,711.5893555961388,1047.5851272936995,1156.983643045106
1533057451.496,1213.586305498667,829.2369899700677,674.136707539786,1192.41816833606,1144.305206171823
1533057451.4989998,1372.0777464353337,796.925904531849,823.9472997651969,1346.9008133143443,916.0738671272734
1533057451.5029998,1127.5427953166661,721.5407236254791,813.2528045917036,1187.5834794788198,897.0594577049254
1533057451.5070002,905.6640519340006,560.0073517828073,577.8314636055309,1023.451230564612,760.7581465981939
1533057451.5110002,860.3794582480003,603.0814472509584,460.12627184972604,960.6892574239945,548.3797224766122
1533057451.515,1055.094864562,710.777713595547,588.5369162535873,1013.7917397394099,345.5117489537809
1533057451.519,1218.1119826886666,796.925904531849,995.1578398121576,1115.1719024022786,722.7163442031925
1533057451.5229998,1086.7931527493333,807.7109699102032,1021.9159926950169,1100.6876096091148,1001.6614307408736
1533057451.5270002,955.4743228100003,667.7036181273959,690.1894077745891,1076.5537128800272,801.961443492575
1533057451.5310001,914.7154063139998,516.9332563146563,502.92616749282547,1008.9669377714481,938.2627545993065
1533057451.535,1041.5085590633332,473.8591608465054,572.4842160187842,970.3487482491967,659.3241598367782
1533057451.539,1190.9393716913328,484.6221708764375,658.0840073049831,1018.6264285966503,668.8281186603758
1533057451.542,1091.318829939333,538.4813317229429,786.4946517088442,994.4826449782842,741.7372454006932
1533057451.546,937.3623401213339,570.7703618127396,941.6524915210018,926.8958698697049,754.415682273976
1533057451.55,819.6205417519997,560.0073517828073,583.1787111922775,849.6594908252022,998.4934444663411
1533057451.554,864.9051354379999,624.6295226592449,561.7787633707279,864.1338967290875,1008.0038950650915
1533057451.5579998,991.6982881873333,603.0814472509584,781.1474041220976,1018.6264285966503,1115.7738543755722
1533057451.562,955.4743228100003,570.7703618127396,652.7367597182364,1086.2033168159508,938.2627545993065
1533057451.566,887.5520692453341,592.3184372210261,583.1787111922775,1047.5851272936995,542.0372581523944
1533057451.57,878.4914409366668,624.6295226592449,674.136707539786,1008.9669377714481,713.2058936044422
1533057451.574,1027.9222535646663,700.0147035656145,834.6527524132533,1018.6264285966503,909.7378945782085
1533057451.5779998,1213.586305498667,732.3257890038334,732.9893034176885,1134.4809971634045,694.1914841820942
1533057451.581,1190.9393716913328,710.777713595547,545.7260631359248,1202.0677722719836,931.9267820502415
1533057451.585,1050.5691873720004,764.6148190936302,684.8421601878424,1177.9338755428962,1115.7738543755722
1533057451.589,964.5256771899997,775.3998844719845,545.7260631359248,1062.0694200868634,1207.6973905382374
1533057451.593,1064.1462189419992,807.7109699102032,470.83172449778243,1066.8942220548251,1080.9065300302561
1533057451.5970001,1222.637659878666,861.5480754082865,732.9893034176885,1197.2429703040218,998.4934444663411
1533057451.601,1177.362340121334,764.6148190936302,877.4526480563527,1202.0677722719836,966.7941063955576
1533057451.605,1032.4572046833339,678.4666281573282,818.6000521784503,1168.274384717694,751.2476959994435
1533057451.609,928.3017118126667,721.5407236254791,572.4842160187842,1105.522298466355,957.2836557968072
1533057451.613,996.223965377333,840.0,529.6843203756848,1066.8942220548251,1299.6209267009028
1533057451.617,1186.413694501333,926.170246284724,642.042264544743,1173.0991866856557,1106.2634037768219
1533057451.621,1177.362340121334,904.6221708764375,636.6840594834333,1269.654547380563,1042.8712194104075
1533057451.6239998,1041.5085590633332,915.3851809063696,727.6420558309418,1202.0677722719836,1055.5496562836904
1533057451.6279998,950.9393716913328,872.3110854382189,716.9475606574484,1139.3156860206448,890.7169933807077
1533057451.6320002,1046.034236253333,840.0,706.2421080093922,1148.9652899565683,706.8699210553771
1533057451.6360002,1200.0,936.9332563146565,898.8525958779024,1192.41816833606,808.3039078167927
1533057451.64,1159.2410835039993,980.0073517828072,973.7578919906078,1279.314038205765,960.4516420713397
1533057451.644,1068.681170060667,1012.3184372210261,920.2525436994521,1235.8611598262733,833.6607815633585
1533057451.6479998,946.4136945013331,1023.0814472509584,706.2421080093922,1129.6561951954427,988.9829938675907
1533057451.6520002,923.776034622667,893.8591608465052,518.9788677276285,1081.378514847989,1061.8856288327554
1533057451.6560001,1100.3794582480002,807.7109699102032,674.136707539786,1139.3156860206448,852.6816827608591
1533057451.66,1136.6034236253333,796.925904531849,743.6947560657449,1192.41816833606,859.0176553099241
1533057451.664,1009.8102708759999,807.7109699102032,802.5473519436473,1124.831393227481,881.2065427819573
1533057451.667,815.0948645620001,753.8518090636979,791.8418992955909,994.4826449782842,1023.8503182129068
1533057451.671,760.7589164960007,667.7036181273959,529.6843203756848,897.927284283377,1020.6823319383743
1533057451.675,923.776034622667,710.777713595547,631.3368118966866,984.8330410423606,960.4516420713397
1533057451.679,987.1726109973338,732.3257890038334,759.7474563005479,1066.8942220548251,770.2621054217915
1533057451.6829998,873.9657637466672,872.3110854382189,668.7894599530393,1047.5851272936995,982.640529543373
1533057451.687,806.0342362533328,872.3110854382189,363.8210279154709,1047.5851272936995,985.8150075930582
1533057451.691,828.681170060667,807.7109699102032,187.26324028176367,1013.7917397394099,557.8901730753626
1533057451.695,973.5863054986669,915.3851809063696,460.12627184972604,1076.5537128800272,443.777749440664
1533057451.699,1082.267475559334,969.244341752875,700.8948604226455,1192.41816833606,399.3999744965976
1533057451.7029998,978.1119826886664,980.0073517828072,738.3475084789982,1202.0677722719836,941.4372326489919
1533057451.706,860.3794582480003,904.6221708764375,599.2314114270806,1153.79009192453,1210.8718685879228
1533057451.71,810.5691873720004,840.0,417.32637620662666,1028.2760325325737,1195.0189536649546
1533057451.714,991.6982881873333,958.4813317229429,535.0315679624315,989.6578430103224,979.4725432688405
1533057451.718,1163.776034622667,840.0,556.4315157839812,1115.1719024022786,900.2274439794579
1533057451.7220001,1059.6205417519998,710.777713595547,502.92616749282547,1129.6561951954427,1156.983643045106
1533057451.726,946.4136945013331,829.2369899700677,588.5369162535873,1047.5851272936995,1065.060106882441
1533057451.73,851.318829939333,829.2369899700677,385.22097573702064,955.8644554560327,982.640529543373
1533057451.734,923.776034622667,764.6148190936302,454.77902426297936,994.4826449782842,630.7928080405272
1533057451.738,1123.0171181266664,613.8444572808907,642.042264544743,1192.41816833606,637.135272364745
1533057451.742,1132.0777464353337,592.3184372210261,690.1894077745891,1298.6231329668906,795.6254709435099
1533057451.746,1055.094864562,753.8518090636979,604.5896164883903,1221.3768670331094,954.1156695222747
1533057451.7489998,896.6034236253333,775.3998844719845,240.75763109835637,951.039653488071,855.8496690353916
1533057451.7529998,873.9657637466672,786.1628945019168,406.6209235585703,830.3503960640764,760.7581465981939
1533057451.7570002,1036.9828818733336,840.0,642.042264544743,941.3801626628689,1055.5496562836904
1533057451.7610002,1041.5085590633332,743.0887990337657,470.83172449778243,1008.9669377714481,979.4725432688405
1533057451.765,892.0777464353337,700.0147035656145,593.8841638403339,979.9983521851202,738.5692591261607
1533057451.769,778.8708991846671,635.3925326891771,337.07383250717453,883.4528783794917,561.058159349895
1533057451.7729998,892.0777464353337,570.7703618127396,197.95773545525697,868.9685855863279,450.1137219897291
1533057451.7770002,1118.4914409366668,581.5554271910938,363.8210279154709,999.3074469462459,554.7156950256773
1533057451.7810001,1145.6640519340006,656.9406080974638,444.073571614923,1119.9967043702404,291.6235234109642
1533057451.785,1023.3965763746667,700.0147035656145,465.4735194364727,1091.0380056731913,431.09282079222834
1533057451.789,928.3017118126667,667.7036181273959,256.8103313331594,1018.6264285966503,583.2470468219283
1533057451.792,969.0606283086672,710.777713595547,299.62118445082183,984.8330410423606,342.33727090409565
1533057451.796,1168.3017118126666,689.2296381872604,529.6843203756848,1066.8942220548251,548.3797224766122
1533057451.8,1190.9393716913328,753.8518090636979,727.6420558309418,1153.79009192453,1080.9065300302561
1533057451.804,1023.3965763746667,796.925904531849,786.4946517088442,1115.1719024022786,1163.319615594171
1533057451.8079998,887.5520692453341,775.3998844719845,679.4949126010957,1018.6264285966503,1077.7385437557236
1533057451.812,878.4914409366668,721.5407236254791,679.4949126010957,960.6892574239945,1131.6267692985402
1533057451.816,1095.8445071293327,689.2296381872604,781.1474041220976,1042.7603253257378,1001.6614307408736
1533057451.82,1163.776034622667,667.7036181273959,711.5893555961388,1095.862807641153,903.3954302539908
1533057451.824,1059.6205417519998,710.777713595547,732.9893034176885,1047.5851272936995,846.3392184366413
1533057451.8279998,973.5863054986669,807.7109699102032,583.1787111922775,1018.6264285966503,871.6960921832069
1533057451.831,937.3623401213339,753.8518090636979,465.4735194364727,917.2462659337814,846.3392184366413
1533057451.835,1073.2068472506667,667.7036181273959,732.9893034176885,951.039653488071,725.8908222528778
1533057451.839,1127.5427953166661,732.3257890038334,818.6000521784503,1071.7289109120654,979.4725432688405
1533057451.843,969.0606283086672,850.7850653783543,668.7894599530393,1057.2446181189016,1233.0607560599558
1533057451.8470001,824.1554928706673,775.3998844719845,502.92616749282547,989.6578430103224,874.8705702328922
1533057451.851,842.2674755593338,796.925904531849,615.2841116618837,897.927284283377,659.3241598367782
1533057451.855,1000.7589164960007,904.6221708764375,888.147143229846,946.2049646308307,985.8150075930582
1533057451.859,1086.7931527493333,850.7850653783543,829.2945473519436,1023.451230564612,1080.9065300302561
1533057451.863,973.5863054986669,764.6148190936302,786.4946517088442,1018.6264285966503,754.415682273976
1533057451.867,815.0948645620001,667.7036181273959,802.5473519436473,984.8330410423606,833.6607815633585
1533057451.871,801.5085590633332,656.9406080974638,625.98956430994,931.7206718376667,909.7378945782085
1533057451.8739998,950.9393716913328,700.0147035656145,775.8001565353509,999.3074469462459,1039.6967413607222
1533057451.8779998,1086.7931527493333,635.3925326891771,845.3472475867467,1139.3156860206448,1068.2280931569733
1533057451.8820002,1005.2845936860002,678.4666281573282,791.8418992955909,1139.3156860206448,836.8287678378911
1533057451.8860002,887.5520692453341,721.5407236254791,631.3368118966866,1047.5851272936995,878.0385565074248
1533057451.89,892.0777464353337,710.777713595547,321.0211322723715,975.1735502171584,1071.3960794315058
1533057451.894,1018.8708991846671,861.5480754082865,631.3368118966866,1018.6264285966503,1150.641178720888
1533057451.8979998,1172.8273890026662,947.6962663445886,813.2528045917036,1100.6876096091148,716.3803716541274
1533057451.9020002,1127.5427953166661,926.170246284724,577.8314636055309,1057.2446181189016,484.98104633504516
1533057451.9060001,978.1119826886664,980.0073517828072,727.6420558309418,1013.7917397394099,605.4359342939615
1533057451.91,887.5520692453341,1044.6295226592447,695.5366553613358,970.3487482491967,919.2483451769587
1533057451.914,987.1726109973338,980.0073517828072,690.1894077745891,994.4826449782842,903.3954302539908
1533057451.917,1104.905135438,990.7703618127396,989.8105922254109,1105.522298466355,859.0176553099241
1533057451.921,1041.5085590633332,969.244341752875,1016.5577876337073,1086.2033168159508,881.2065427819573
1533057451.925,978.1119826886664,947.6962663445886,968.4106444038612,1052.4099292616613,995.3189664166558
1533057451.929,887.5520692453341,829.2369899700677,807.894599530394,979.9983521851202,1492.9849414001364
1533057451.9329998,941.8880173113336,603.0814472509584,706.2421080093922,926.8958698697049,1179.1725305171392
1533057451.937,1132.0777464353337,635.3925326891771,770.4419514740413,1042.7603253257378,925.5843177260236
1533057451.941,1100.3794582480002,743.0887990337657,775.8001565353509,1100.6876096091148,988.9829938675907
1533057451.945,991.6982881873333,753.8518090636979,882.7998956430994,1081.378514847989,985.8150075930582
1533057451.949,941.8880173113336,721.5407236254791,749.0420036524915,1052.4099292616613,998.4934444663411
1533057451.9529998,1005.2845936860002,656.9406080974638,674.136707539786,975.1735502171584,1077.7385437557236
1533057451.957,1177.362340121334,603.0814472509584,866.7471954082964,1062.0694200868634,1207.6973905382374
1533057451.96,1172.8273890026662,656.9406080974638,952.3579441690582,1182.758677510858,922.4163314514911
1533057451.964,1055.094864562,764.6148190936302,995.1578398121576,1100.6876096091148,881.2065427819573
1533057451.968,932.8273890026662,710.777713595547,888.147143229846,989.6578430103224,976.3045569943079
1533057451.9720001,905.6640519340006,667.7036181273959,829.2945473519436,926.8958698697049,735.3947810764754
1533057451.976,1055.094864562,786.1628945019168,1070.063135924863,1013.7917397394099,599.0934699697436
1533057451.98,1073.2068472506667,689.2296381872604,1214.5264805635272,1119.9967043702404,998.4934444663411
1533057451.984,991.6982881873333,560.0073517828073,952.3579441690582,1119.9967043702404,1004.8294170154062
1533057451.988,932.8273890026662,581.5554271910938,775.8001565353509,1066.8942220548251,928.7587957757089
1533057451.992,973.5863054986669,656.9406080974638,861.3999478215497,1028.2760325325737,1350.341165969187
1533057451.996,1123.0171181266664,667.7036181273959,995.1578398121576,1119.9967043702404,1080.9065300302561
1533057451.9989998,1141.129100815333,656.9406080974638,840.0,1148.9652899565683,668.8281186603758
1533057452.0029998,1023.3965763746667,721.5407236254791,845.3472475867467,1095.862807641153,881.2065427819573
1533057452.0070002,910.1897291240001,829.2369899700677,893.5053482911558,1008.9669377714481,1210.8718685879228
1533057452.0110002,896.6034236253333,829.2369899700677,604.5896164883903,955.8644554560327,1046.0392056849403
1533057452.015,1064.1462189419992,915.3851809063696,829.2945473519436,1023.451230564612,792.4509928938246
1533057452.019,1118.4914409366668,904.6221708764375,1027.2632402817637,1129.6561951954427,611.7719068430265
1533057452.0229998,960.0,796.925904531849,909.5580485259587,1095.862807641153,507.16993380707834
1533057452.0270002,864.9051354379999,840.0,738.3475084789982,1018.6264285966503,757.5836685485086
1533057452.0310001,864.9051354379999,732.3257890038334,390.56822332376726,999.3074469462459,637.135272364745
1533057452.035,969.0606283086672,656.9406080974638,508.28437255413513,1052.4099292616613,738.5692591261607
1533057452.039,1032.4572046833339,743.0887990337657,732.9893034176885,1129.6561951954427,1046.0392056849403
1533057452.042,937.3623401213339,764.6148190936302,749.0420036524915,1095.862807641153,881.2065427819573
1533057452.046,855.8537810580007,840.0,684.8421601878424,975.1735502171584,1214.0398548624553
1533057452.05,864.9051354379999,883.0961508165731,508.28437255413513,859.3090947611257,1356.6771385182521
1533057452.054,964.5256771899997,775.3998844719845,743.6947560657449,820.6909052388743,1011.171881339624
1533057452.0579998,1091.318829939333,710.777713595547,797.2001043569006,955.8644554560327,1093.584966903539
1533057452.062,1086.7931527493333,753.8518090636979,722.2948082441951,1095.862807641153,1065.060106882441
1533057452.066,982.6376598786661,786.1628945019168,716.9475606574484,994.4826449782842,763.9261328727264
1533057452.07,860.3794582480003,775.3998844719845,438.72632402817635,782.072715716623,960.4516420713397
1533057452.074,928.3017118126667,818.4739799401355,652.7367597182364,806.2066124457103,960.4516420713397
1533057452.0779998,1073.2068472506667,743.0887990337657,690.1894077745891,984.8330410423606,630.7928080405272
1533057452.082,1023.3965763746667,775.3998844719845,593.8841638403339,1004.1421358034863,722.7163442031925
1533057452.085,946.4136945013331,904.6221708764375,684.8421601878424,975.1735502171584,909.7378945782085
1533057452.089,892.0777464353337,829.2369899700677,449.4208192016697,955.8644554560327,846.3392184366413
1533057452.093,996.223965377333,818.4739799401355,615.2841116618837,955.8644554560327,881.2065427819573
1533057452.0970001,1181.8880173113334,850.7850653783543,658.0840073049831,1062.0694200868634,820.9823446900756
1533057452.101,1100.3794582480002,872.3110854382189,518.9788677276285,1110.3471004343169,1122.11631869979
1533057452.105,937.3623401213339,904.6221708764375,502.92616749282547,1018.6264285966503,1191.850967390422
1533057452.109,860.3794582480003,904.6221708764375,315.66292721106186,936.5553606949071,763.9261328727264
1533057452.113,914.7154063139998,904.6221708764375,567.1369684320375,941.3801626628689,1023.8503182129068
1533057452.117,1050.5691873720004,829.2369899700677,941.6524915210018,1023.451230564612,1229.8862780102706
1533057452.121,1059.6205417519998,840.0,930.9579963475085,1115.1719024022786,795.6254709435099
1533057452.1239998,946.4136945013331,883.0961508165731,861.3999478215497,1115.1719024022786,608.603920568494
1533057452.1279998,864.9051354379999,786.1628945019168,775.8001565353509,1028.2760325325737,811.4718940913253
1533057452.1320002,905.6640519340006,732.3257890038334,834.6527524132533,1037.935523357776,405.7359470456627
1533057452.1360002,1064.1462189419992,818.4739799401355,1161.0211322723715,1129.6561951954427,336.0012983550306
1533057452.14,1095.8445071293327,796.925904531849,1086.115836159666,1163.4495827497321,922.4163314514911
1533057452.144,978.1119826886664,786.1628945019168,1048.6631881033134,1115.1719024022786,849.5136964863266
1533057452.1479998,837.7325244406662,861.5480754082865,1000.5050873989043,984.8330410423606,567.3941318989602
1533057452.1520002,892.0777464353337,926.170246284724,791.8418992955909,926.8958698697049,776.6045697460092
1533057452.1560001,1132.0777464353337,904.6221708764375,845.3472475867467,1028.2760325325737,906.5699083036758
1533057452.16,1145.6640519340006,850.7850653783543,840.0,1081.378514847989,1144.305206171823
1533057452.164,973.5863054986669,818.4739799401355,802.5473519436473,1091.0380056731913,969.9620926700901
1533057452.167,910.1897291240001,678.4666281573282,609.936864075137,1047.5851272936995,633.9607943150597
1533057452.171,955.4743228100003,527.6962663445886,444.073571614923,970.3487482491967,630.7928080405272
1533057452.175,1059.6205417519998,581.5554271910938,829.2945473519436,1037.935523357776,599.0934699697436
1533057452.179,1100.3794582480002,646.1555427191093,930.9579963475085,1100.6876096091148,738.5692591261607
1533057452.1829998,1014.3359480659994,721.5407236254791,866.7471954082964,1018.6264285966503,982.640529543373
1533057452.187,928.3017118126667,872.3110854382189,1016.5577876337073,941.3801626628689,1131.6267692985402
1533057452.191,905.6640519340006,861.5480754082865,823.9472997651969,926.8958698697049,760.7581465981939
1533057452.195,982.6376598786661,775.3998844719845,904.1998434646491,984.8330410423606,703.7019347808446
1533057452.199,1068.681170060667,796.925904531849,904.1998434646491,1095.862807641153,1049.2071919594725
1533057452.2029998,996.223965377333,818.4739799401355,727.6420558309418,1139.3156860206448,824.1503309646082
1533057452.207,855.8537810580007,743.0887990337657,567.1369684320375,1095.862807641153,922.4163314514911
1533057452.21,842.2674755593338,646.1555427191093,326.3683798591182,1042.7603253257378,954.1156695222747
1533057452.214,1041.5085590633332,721.5407236254791,417.32637620662666,1081.378514847989,434.2672988419137
1533057452.218,1141.129100815333,818.4739799401355,567.1369684320375,1192.41816833606,801.961443492575
1533057452.2220001,1041.5085590633332,861.5480754082865,615.2841116618837,1240.685961794235,1280.6065172785547
1533057452.226,950.9393716913328,883.0961508165731,470.83172449778243,1197.2429703040218,586.4150330964608
1533057452.23,928.3017118126667,904.6221708764375,272.8630315679624,1100.6876096091148,402.5679607711302
1533057452.234,1055.094864562,990.7703618127396,561.7787633707279,1134.4809971634045,729.0588085274103
1533057452.238,1218.1119826886666,990.7703618127396,674.136707539786,1240.685961794235,1068.2280931569733
1533057452.242,1127.5427953166661,904.6221708764375,593.8841638403339,1264.8297454126011,1226.7182917357381
1533057452.246,973.5863054986669,850.7850653783543,636.6840594834333,1226.2115558903497,820.9823446900756
1533057452.2489998,950.9393716913328,861.5480754082865,583.1787111922775,1134.4809971634045,1030.1927825371247
1533057452.2529998,1005.2845936860002,829.2369899700677,770.4419514740413,1100.6876096091148,1172.8300661929213
1533057452.2570002,1077.732524440666,775.3998844719845,914.9052961127054,1216.5520650651476,1039.6967413607222
1533057452.2610002,1064.1462189419992,796.925904531849,898.8525958779024,1298.6231329668906,1359.8516165679373
1533057452.265,1009.8102708759999,743.0887990337657,823.9472997651969,1274.4793493485247,982.640529543373
1533057452.269,937.3623401213339,721.5407236254791,695.5366553613358,1235.8611598262733,583.2470468219283
1533057452.2729998,1041.5085590633332,764.6148190936302,963.0524393425516,1221.3768670331094,738.5692591261607
1533057452.2770002,1227.1726109973338,807.7109699102032,1118.2212366292722,1337.241322489142,935.094768324774
1533057452.2810001,1104.905135438,850.7850653783543,947.0106965823115,1409.6528995656831,732.2267948019429
1533057452.285,892.0777464353337,861.5480754082865,909.5580485259587,1342.0661244571038,782.947034070227
1533057452.289,828.681170060667,818.4739799401355,722.2948082441951,1303.4479349348524,763.9261328727264
1533057452.292,901.1291008153329,700.0147035656145,663.4422123662927,1269.654547380563,649.8137092380279
1533057452.296,1118.4914409366668,635.3925326891771,738.3475084789982,1342.0661244571038,652.9816955125603
1533057452.3,1118.4914409366668,656.9406080974638,684.8421601878424,1390.3438048045573,630.7928080405272
1533057452.304,955.4743228100003,753.8518090636979,829.2945473519436,1337.241322489142,1169.6620799183888
1533057452.3079998,869.4308126279996,700.0147035656145,749.0420036524915,1279.314038205765,1445.4326884063848
1533057452.312,901.1291008153329,667.7036181273959,551.0842681972346,1260.0049434446394,1223.5503054612057
1533057452.316,1077.732524440666,829.2369899700677,850.7054526480564,1395.168606772519,1226.7182917357381
1533057452.32,1145.6640519340006,872.3110854382189,786.4946517088442,1491.7239674674263,1147.4731924463556
1533057452.324,1032.4572046833339,893.8591608465052,759.7474563005479,1433.7966831840492,840.0032458875763
1533057452.3279998,901.1291008153329,904.6221708764375,872.105400469606,1375.8595120113935,814.6398803658578
1533057452.332,960.0,861.5480754082865,711.5893555961388,1303.4479349348524,871.6960921832069
1533057452.335,1163.776034622667,947.6962663445886,882.7998956430994,1274.4793493485247,786.1150203447596
1533057452.339,1222.637659878666,990.7703618127396,1037.957735455257,1313.1074257600546,966.7941063955576
1533057452.343,1095.8445071293327,904.6221708764375,936.3052439342551,1313.1074257600546,1150.641178720888
1533057452.3470001,987.1726109973338,872.3110854382189,625.98956430994,1202.0677722719836,1093.584966903539
1533057452.351,1000.7589164960007,829.2369899700677,465.4735194364727,1071.7289109120654,938.2627545993065
1533057452.355,1113.965763746667,753.8518090636979,834.6527524132533,1163.4495827497321,941.4372326489919
1533057452.359,1163.776034622667,656.9406080974638,845.3472475867467,1260.0049434446394,1008.0038950650915
1533057452.363,1068.681170060667,667.7036181273959,823.9472997651969,1168.274384717694,681.5130473088113
1533057452.367,937.3623401213339,656.9406080974638,914.9052961127054,1086.2033168159508,931.9267820502415
1533057452.371,914.7154063139998,581.5554271910938,583.1787111922775,1037.935523357776,1185.5085030662042
1533057452.3739998,1064.1462189419992,732.3257890038334,679.4949126010957,1115.1719024022786,1071.3960794315058
1533057452.3779998,1200.0,807.7109699102032,759.7474563005479,1255.1702545873989,954.1156695222747
1533057452.3820002,1136.6034236253333,796.925904531849,732.9893034176885,1313.1074257600546,719.5483579286599
1533057452.3860002,1000.7589164960007,753.8518090636979,706.2421080093922,1216.5520650651476,1245.7391929332387
1533057452.39,964.5256771899997,743.0887990337657,513.6316201408819,1091.0380056731913,1179.1725305171392
1533057452.394,1132.0777464353337,818.4739799401355,674.136707539786,1134.4809971634045,656.149681787093
1533057452.3979998,1236.223965377333,807.7109699102032,807.894599530394,1206.8925742399454,871.6960921832069
1533057452.4020002,1068.681170060667,753.8518090636979,700.8948604226455,1182.758677510858,976.3045569943079
1533057452.4060001,928.3017118126667,667.7036181273959,513.6316201408819,1052.4099292616613,782.947034070227
1533057452.41,928.3017118126667,689.2296381872604,433.3790764414297,917.2462659337814,830.492795288826
1533057452.414,1005.2845936860002,786.1628945019168,765.0947038872946,941.3801626628689,941.4372326489919
1533057452.417,1086.7931527493333,700.0147035656145,802.5473519436473,1062.0694200868634,1071.3960794315058
1533057452.421,1018.8708991846671,700.0147035656145,620.6313592486304,1066.8942220548251,1252.0751654823039
1533057452.425,892.0777464353337,796.925904531849,807.894599530394,1008.9669377714481,1046.0392056849403
1533057452.429,828.681170060667,807.7109699102032,802.5473519436473,975.1735502171584,897.0594577049254
1533057452.4329998,950.9393716913328,764.6148190936302,840.0,936.5553606949071,795.6254709435099
1533057452.437,1123.0171181266664,775.3998844719845,1000.5050873989043,1018.6264285966503,773.4365834714768
1533057452.441,1032.4572046833339,904.6221708764375,930.9579963475085,1129.6561951954427,893.8849796552404
1533057452.445,878.4914409366668,936.9332563146565,786.4946517088442,1057.2446181189016,643.4712449138101
1533057452.449,851.318829939333,786.1628945019168,625.98956430994,946.2049646308307,903.3954302539908
1533057452.4529998,941.8880173113336,646.1555427191093,663.4422123662927,926.8958698697049,1175.9980524674538
1533057452.457,1050.5691873720004,753.8518090636979,898.8525958779024,1062.0694200868634,973.1300789446226
1533057452.46,1018.8708991846671,850.7850653783543,872.105400469606,1095.862807641153,1125.2843049743224
1533057452.464,910.1897291240001,850.7850653783543,866.7471954082964,989.6578430103224,881.2065427819573
1533057452.468,846.7931527493334,850.7850653783543,807.894599530394,917.2462659337814,1027.0183044874395
1533057452.4720001,937.3623401213339,764.6148190936302,690.1894077745891,917.2462659337814,1084.0745163047886
1533057452.476,1095.8445071293327,796.925904531849,738.3475084789982,999.3074469462459,652.9816955125603
1533057452.48,1091.318829939333,786.1628945019168,727.6420558309418,1018.6264285966503,640.3032586392775
1533057452.484,991.6982881873333,893.8591608465052,765.0947038872946,960.6892574239945,776.6045697460092
1533057452.488,923.776034622667,990.7703618127396,631.3368118966866,902.7619731406174,1071.3960794315058
1533057452.492,1009.8102708759999,883.0961508165731,513.6316201408819,864.1338967290875,684.681033583344
1533057452.496,1181.8880173113334,840.0,577.8314636055309,955.8644554560327,370.86862270034663
1533057452.4989998,1136.6034236253333,883.0961508165731,518.9788677276285,1028.2760325325737,361.3581721015963
1533057452.5029998,1018.8708991846671,990.7703618127396,561.7787633707279,1004.1421358034863,700.5274567311593
1533057452.5070002,941.8880173113336,1023.0814472509584,476.1789720845291,951.039653488071,944.6052189235244
1533057452.5110002,914.7154063139998,969.244341752875,347.7683276806679,926.8958698697049,992.1509801421233
1533057452.515,1046.034236253333,850.7850653783543,508.28437255413513,1033.1008345005355,1103.0954175022894
1533057452.519,1091.318829939333,689.2296381872604,535.0315679624315,1129.6561951954427,782.947034070227
1533057452.5229998,973.5863054986669,710.777713595547,529.6843203756848,1081.378514847989,767.0941191472589
1533057452.5270002,864.9051354379999,689.2296381872604,460.12627184972604,999.3074469462459,909.7378945782085
1533057452.5310001,873.9657637466672,463.0961508165729,353.11557526741456,941.3801626628689,754.415682273976
1533057452.535,1055.094864562,527.6962663445886,567.1369684320375,1008.9669377714481,846.3392184366413
1533057452.539,1168.3017118126666,635.3925326891771,599.2314114270806,1144.1404879886065,1137.9627418476055
1533057452.542,1086.7931527493333,624.6295226592449,567.1369684320375,1124.831393227481,1011.171881339624
1533057452.546,1000.7589164960007,549.244341752875,411.968171145317,1057.2446181189016,900.2274439794579
1533057452.55,964.5256771899997,484.6221708764375,246.11583615966606,1018.6264285966503,741.7372454006932
1533057452.554,1068.681170060667,516.9332563146563,583.1787111922775,989.6578430103224,573.7365962231779
1533057452.5579998,1163.776034622667,506.17024628472404,577.8314636055309,1066.8942220548251,760.7581465981939
1533057452.562,1077.732524440666,463.0961508165729,342.4210800939212,1115.1719024022786,1128.452291248855
1533057452.566,932.8273890026662,560.0073517828073,561.7787633707279,1057.2446181189016,1150.641178720888
1533057452.57,883.0171181266664,538.4813317229429,497.5789199060788,975.1735502171584,751.2476959994435
1533057452.574,1014.3359480659994,527.6962663445886,561.7787633707279,994.4826449782842,678.3385692591261
1533057452.5779998,1059.6205417519998,549.244341752875,840.0,1081.378514847989,1020.6823319383743
1533057452.582,960.0,549.244341752875,818.6000521784503,1066.8942220548251,1017.507853888689
1533057452.585,873.9657637466672,656.9406080974638,620.6313592486304,1042.7603253257378,694.1914841820942
1533057452.589,837.7325244406662,753.8518090636979,460.12627184972604,926.8958698697049,935.094768324774
1533057452.593,1046.034236253333,850.7850653783543,551.0842681972346,941.3801626628689,976.3045569943079
1533057452.5970001,1335.8445071293327,883.0961508165731,674.136707539786,1226.2115558903497,592.7574974206786
1533057452.601,1168.3017118126666,764.6148190936302,642.042264544743,1211.7272630971859,741.7372454006932
1533057452.605,837.7325244406662,721.5407236254791,658.0840073049831,946.2049646308307,675.1705829845936
1533057452.609,833.2068472506666,753.8518090636979,518.9788677276285,907.5867751085792,843.1712321621088
1533057452.613,1018.8708991846671,732.3257890038334,658.0840073049831,1013.7917397394099,1245.7391929332387
1533057452.617,1095.8445071293327,506.17024628472404,866.7471954082964,1095.862807641153,941.4372326489919
1533057452.621,1073.2068472506667,387.71096991020323,759.7474563005479,1192.41816833606,652.9816955125603
1533057452.625,1068.681170060667,506.17024628472404,663.4422123662927,1202.0677722719836,824.1503309646082
1533057452.6279998,955.4743228100003,441.54807540828654,508.28437255413513,1052.4099292616613,1020.6823319383743
1533057452.6320002,1014.3359480659994,420.0000000000001,476.1789720845291,1057.2446181189016,1125.2843049743224
1533057452.6360002,1227.1726109973338,420.0000000000001,716.9475606574484,1187.5834794788198,868.5281059086744
1533057452.64,1163.776034622667,398.4739799401354,797.2001043569006,1168.274384717694,903.3954302539908
1533057452.644,1055.094864562,409.2369899700677,700.8948604226455,1091.0380056731913,1131.6267692985402
1533057452.6479998,946.4136945013331,441.54807540828654,556.4315157839812,975.1735502171584,1099.9274312277566
1533057452.6520002,937.3623401213339,387.71096991020323,465.4735194364727,926.8958698697049,532.5268075536441
1533057452.6560001,1086.7931527493333,323.08879903376567,738.3475084789982,1076.5537128800272,336.0012983550306
1533057452.66,1109.4308126279996,269.2516935356825,593.8841638403339,1187.5834794788198,767.0941191472589
1533057452.664,996.223965377333,258.46662815732816,588.5369162535873,1124.831393227481,950.9411914725895
1533057452.667,928.3017118126667,312.32578900383345,679.4949126010957,1023.451230564612,1011.171881339624
1533057452.671,1009.8102708759999,247.70361812739588,577.8314636055309,1042.7603253257378,700.5274567311593
1533057452.675,1186.413694501333,204.62952265924494,850.7054526480564,1100.6876096091148,773.4365834714768
1533057452.679,1209.0606283086672,183.08144725095835,979.1051395773545,1148.9652899565683,906.5699083036758
1533057452.6829998,1055.094864562,226.15554271910938,898.8525958779024,1158.6247807817704,640.3032586392775
1533057452.687,987.1726109973338,333.85180906369783,631.3368118966866,1042.7603253257378,557.8901730753626
1533057452.691,1046.034236253333,323.08879903376567,497.5789199060788,979.9983521851202,434.2672988419137
1533057452.695,1172.8273890026662,344.6148190936302,759.7474563005479,1013.7917397394099,551.5477087511448
1533057452.699,1240.7496425673326,269.2516935356825,754.3892512392382,1062.0694200868634,868.5281059086744
1533057452.7029998,1127.5427953166661,269.2516935356825,690.1894077745891,1071.7289109120654,504.00194753254584
1533057452.707,973.5863054986669,463.0961508165729,856.0527002348031,1008.9669377714481,637.135272364745
1533057452.71,996.223965377333,495.3851809063698,700.8948604226455,951.039653488071,944.6052189235244
1533057452.714,1163.776034622667,549.244341752875,968.4106444038612,1028.2760325325737,1125.2843049743224
1533057452.718,1186.413694501333,516.9332563146563,925.5997912861988,1158.6247807817704,1353.5091522437194
1533057452.7220001,1041.5085590633332,527.6962663445886,679.4949126010957,1139.3156860206448,1233.0607560599558
1533057452.726,950.9393716913328,581.5554271910938,690.1894077745891,1095.862807641153,909.7378945782085
1533057452.73,1009.8102708759999,516.9332563146563,518.9788677276285,1066.8942220548251,722.7163442031925
1533057452.734,1132.0777464353337,420.0000000000001,615.2841116618837,1057.2446181189016,988.9829938675907
1533057452.738,1204.5256771899997,366.16289450191664,786.4946517088442,1168.274384717694,881.2065427819573
1533057452.742,1127.5427953166661,420.0000000000001,920.2525436994521,1197.2429703040218,1096.7529531780715
1533057452.746,1036.9828818733336,420.0000000000001,706.2421080093922,1115.1719024022786,935.094768324774
1533057452.75,969.0606283086672,420.0000000000001,572.4842160187842,1042.7603253257378,748.0732179497583
1533057452.7529998,1059.6205417519998,484.6221708764375,925.5997912861988,1076.5537128800272,947.7732051980569
1533057452.7570002,1186.413694501333,463.0961508165729,1000.5050873989043,1182.758677510858,808.3039078167927
1533057452.7610002,1091.318829939333,398.4739799401354,845.3472475867467,1182.758677510858,713.2058936044422
1533057452.765,955.4743228100003,452.31108543821887,888.147143229846,1086.2033168159508,779.7725560205417
1533057452.769,905.6640519340006,473.8591608465054,652.7367597182364,951.039653488071,767.0941191472589
1533057452.7729998,1041.5085590633332,624.6295226592449,813.2528045917036,922.0710679017432,830.492795288826
1533057452.7770002,1186.413694501333,753.8518090636979,1037.957735455257,1033.1008345005355,748.0732179497583
1533057452.7810001,1100.3794582480002,667.7036181273959,818.6000521784503,1105.522298466355,897.0594577049254
1533057452.785,1000.7589164960007,646.1555427191093,690.1894077745891,1057.2446181189016,1195.0189536649546
1533057452.789,941.8880173113336,656.9406080974638,658.0840073049831,989.6578430103224,820.9823446900756
1533057452.792,996.223965377333,678.4666281573282,818.6000521784503,984.8330410423606,402.5679607711302
1533057452.796,1113.965763746667,753.8518090636979,1150.3156796243152,1052.4099292616613,982.640529543373
1533057452.8,1104.905135438,667.7036181273959,920.2525436994521,1076.5537128800272,1261.5856160810542
1533057452.804,991.6982881873333,624.6295226592449,882.7998956430994,1018.6264285966503,779.7725560205417
1533057452.8079998,887.5520692453341,656.9406080974638,1011.2105400469607,922.0710679017432,849.5136964863266
1533057452.812,973.5863054986669,581.5554271910938,1032.6104878685103,951.039653488071,684.681033583344
1533057452.816,1082.267475559334,538.4813317229429,1300.126271849726,979.9983521851202,776.6045697460092
1533057452.82,1009.8102708759999,452.31108543821887,1289.4317766762326,946.2049646308307,1090.4169806290065
1533057452.824,969.0606283086672,398.4739799401354,1257.3263762066265,1013.7917397394099,1017.507853888689
1533057452.8279998,896.6034236253333,301.5407236254791,1064.7158883381164,931.7206718376667,973.1300789446226
1533057452.832,883.0171181266664,258.46662815732816,1080.7685885729195,840.0,1077.7385437557236
1533057452.835,1104.905135438,430.78506537835415,1439.2314114270805,979.9983521851202,820.9823446900756
1533057452.839,1150.1897291240002,473.8591608465054,1284.0735716149231,1076.5537128800272,633.9607943150597
1533057452.843,1046.034236253333,549.244341752875,1064.7158883381164,1047.5851272936995,301.1339740097145
1533057452.8470001,932.8273890026662,603.0814472509584,1150.3156796243152,1004.1421358034863,320.1548752072152
1533057452.851,946.4136945013331,516.9332563146563,1064.7158883381164,1013.7917397394099,630.7928080405272
1533057452.855,1163.776034622667,624.6295226592449,1161.0211322723715,1158.6247807817704,640.3032586392775
1533057452.859,1213.586305498667,732.3257890038334,1182.4210800939213,1231.0363578583115,608.603920568494
1533057452.863,1064.1462189419992,786.1628945019168,1128.9157318027655,1163.4495827497321,909.7378945782085
1533057452.867,950.9393716913328,646.1555427191093,925.5997912861988,1091.0380056731913,1004.8294170154062
1533057452.871,950.9393716913328,538.4813317229429,754.3892512392382,1086.2033168159508,1039.6967413607222
1533057452.875,1100.3794582480002,721.5407236254791,930.9579963475085,1168.274384717694,1198.186939939487
1533057452.8779998,1209.0606283086672,732.3257890038334,973.7578919906078,1245.5206506514753,1201.3614179891724
