timestamps,TP9,AF7,AF8,TP10,Right AUX
1533222972.289,1106.6475485661424,972.6289796278331,955.8970388774861,1192.4271731756953,653.3336551291378
1533222972.292,1091.8920752389763,1020.8636858041567,680.2047699638712,1181.8284717511387,455.3520043856171
1533222972.296,1056.0567375886526,980.6626098715349,555.4872588911694,1144.7303033239655,424.2414296008468
1533222972.3,1075.0299105766267,924.4107358085663,736.0002640644317,1152.6806861129955,743.8387251369643
1533222972.304,1110.8652482269504,940.4779962959697,858.6668347076687,1176.5318344800853,981.4109137047087
1533222972.3079998,1106.6475485661424,940.4779962959697,922.6669307310984,1155.329004748522,1009.6948341429945
1533222972.312,1083.4609929078015,924.4107358085663,785.6412564665778,1144.7303033239655,432.7271849647806
1533222972.316,1053.950046253469,908.3270129641062,688.8202321366414,1152.6806861129955,562.8285851213112
1533222972.32,1032.8701819303114,892.2432901196461,674.0511084704668,1126.1812191103788,910.7040087712342
1533222972.324,1049.736663583102,940.4779962959697,807.7949419658397,1099.6871789902123,910.7040087712342
1533222972.3279998,1075.0299105766267,988.7127024722932,987.48706684431,1128.8349646283555,885.2525350039133
1533222972.332,1051.8433549182855,964.5953493841315,733.9484834299569,1144.7303033239655,670.2993735325249
1533222972.335,1039.1945729263027,972.6289796278331,525.1281312640284,1107.6321348967924,820.1989387634077
1533222972.339,1013.9013259327783,996.746332715995,630.1537575168342,1107.6321348967924,707.0690493347446
1533222972.343,1022.3324082639531,940.4779962959697,775.3848739092339,1112.9341990502955,729.6938687555811
1533222972.3470001,1079.2476102374344,940.4779962959697,962.8715806656825,1142.0819846884388,1037.9787545812806
1533222972.351,1091.8920752389763,996.746332715995,798.7694597481785,1171.229770326582,738.179624119515
1533222972.355,1056.0567375886526,940.4779962959697,526.7690516486023,1155.329004748522,656.1603094756223
1533222972.359,1018.1147086031452,916.3606432078078,488.20532209859203,1134.131601899409,879.5934339864639
1533222972.363,1039.1945729263027,956.5617191404298,640.8201601190691,1131.4832832638822,741.0062784659993
1533222972.367,1075.0299105766267,900.2933827204045,921.0251701415145,1152.6806861129955,610.9048783094687
1533222972.371,1070.8122109158187,811.8740629685158,814.358623504135,1181.8284717511387,817.3722844169232
1533222972.375,1037.0878815911194,908.3270129641062,483.28172073986053,1181.8284717511387,1148.281989663459
1533222972.3779998,1024.4390995991366,964.5953493841315,499.28174474571796,1155.329004748522,667.4727191860405
1533222972.3820002,1051.8433549182855,948.5116265396714,673.2310683806849,1160.6310689020254,588.2800588886322
1533222972.3860002,1096.109774899784,940.4779962959697,843.8977110414942,1176.5318344800853,749.4920338299332
1533222972.39,1098.2164662349676,964.5953493841315,760.2048899931583,1200.3775559647252,690.097538606877
1533222972.394,1026.550107924761,1004.7799629596966,542.3590556095687,1157.9827502664987,854.1419602191429
1533222972.3979998,997.0391612704286,988.7127024722932,448.40985200388894,1091.7367962011822,879.5934339864639
1533222972.4020002,1030.763490595128,956.5617191404298,465.2307563045383,1104.9838162612657,873.940125293495
1533222972.4060001,1066.5988282454518,916.3606432078078,722.0511804880391,1112.9341990502955,743.8387251369643
1533222972.41,1066.5988282454518,908.3270129641062,805.3331412864738,1089.0830506832058,704.2423949882602
1533222972.414,988.6037619488128,900.2933827204045,453.74347340751143,1049.3365636205058,729.6938687555811
1533222972.417,961.2038236201048,956.5617191404298,364.71787116056316,1022.8370966178893,752.3244805008982
1533222972.421,1011.7946345975948,1028.8973160478583,546.0509164236073,1062.589010563039,486.4625791703874
1533222972.425,1043.4122725871107,1004.7799629596966,811.8976630297792,1089.0830506832058,690.097538606877
1533222972.429,1064.4921369102683,996.746332715995,821.3331652923313,1097.0334334722356,1023.8338981998972
1533222972.4329998,1068.7055195806352,1036.93094629156,551.7945578721208,1120.8845818393256,989.8966690686425
1533222972.437,988.6037619488128,916.3606432078078,409.0252421590869,1123.532900474852,1009.6948341429945
1533222972.441,956.986123959297,795.7903401240557,450.8716526832547,1136.7853474173853,842.8237581842442
1533222972.445,1062.3811285846439,787.7567098803539,706.0511564821817,1179.180153115612,1241.61371401777
1533222972.449,1083.4609929078015,811.8740629685158,721.6411604431481,1160.6310689020254,1111.5123138612394
1533222972.4529998,999.145852605612,835.9749536996209,377.02519414737196,1081.1380947766256,523.2322549726072
1533222972.457,946.4483502929386,868.142399388541,324.9232412708701,1046.688244984979,588.2800588886322
1533222972.46,988.6037619488128,900.2933827204045,534.9744937764815,1083.7864134121523,729.6938687555811
1533222972.464,1077.13660191181,932.444366052268,691.6920528608981,1142.0819846884388,873.940125293495
1533222972.468,1096.109774899784,948.5116265396714,774.153973569551,1184.4822172691152,995.5557700860919
1533222972.4720001,1068.7055195806352,884.2096598759443,534.1536134816895,1187.1305359046419,786.2617096321529
1533222972.476,1028.6567992599446,868.142399388541,293.74323334893717,1176.5318344800853,528.885563665576
1533222972.48,1009.6836262719704,908.3270129641062,376.615174102481,1163.279387537552,704.2423949882602
1533222972.484,1011.7946345975948,876.1760296322428,580.9227851595789,1152.6806861129955,732.526315426546
1533222972.488,1026.550107924761,892.2432901196461,681.0256502586631,1155.329004748522,378.9859984346932
1533222972.492,1022.3324082639531,892.2432901196461,577.2309243455403,1131.4832832638822,922.0164184816525
1533222972.496,986.4970706136294,916.3606432078078,318.7695797774657,1089.0830506832058,1301.0082092408263
1533222972.5,992.8214616096208,948.5116265396714,229.33311728061648,1094.385114836709,732.526315426546
1533222972.5029998,1030.763490595128,876.1760296322428,493.9489635471055,1107.6321348967924,602.4249152700154
1533222972.5070002,1043.4122725871107,844.0250463003792,762.2566706276332,1094.385114836709,831.5113484738259
1533222972.5110002,1013.9013259327783,884.2096598759443,563.6918608140386,1086.434732047679,970.0985039942905
1533222972.515,1018.1147086031452,884.2096598759443,288.82047219521564,1065.2373291985657,658.9869638221066
1533222972.519,1009.6836262719704,860.0923067877827,307.6923169253298,1067.8856478340924,517.5731539551577
1533222972.5229998,1013.9013259327783,827.9413234559191,472.6153181376256,1062.589010563039,593.9391599060816
1533222972.5270002,1060.2744372494603,811.8740629685158,695.3847538799467,1054.6386277740091,625.0497346908519
1533222972.5310001,1083.4609929078015,844.0250463003792,489.02536218837395,1073.1877119875958,528.885563665576
1533222972.535,1041.3012642614863,803.8239703677573,240.82040017764342,1065.2373291985657,602.4249152700154
1533222972.539,1005.4702436016034,811.8740629685158,379.0769747818468,1049.3365636205058,984.2433603756737
1533222972.542,1064.4921369102683,827.9413234559191,435.28164872228825,1051.9848822560325,777.7759542682192
1533222972.546,1119.2963305581252,868.142399388541,644.1028410932267,1059.9352650450626,576.967649178214
1533222972.55,1110.8652482269504,932.444366052268,641.641040413861,1091.7367962011822,715.5548046986785
1533222972.554,1053.950046253469,964.5953493841315,329.8460024245916,1078.484349258649,673.1318202034898
1533222972.5579998,1056.0567375886526,1004.7799629596966,381.94879550610347,1065.2373291985657,605.2515696164999
1533222972.562,1081.354301572618,972.6289796278331,571.4872828970268,1073.1877119875958,596.7658142525661
1533222972.566,1123.509713228492,1004.7799629596966,767.5894518262456,1091.7367962011822,760.8044435403515
1533222972.57,1129.8341042244836,1020.8636858041567,718.3584794689905,1136.7853474173853,828.6846941273415
1533222972.574,1060.2744372494603,900.2933827204045,463.17981587507353,1131.4832832638822,735.3529697730305
1533222972.5779998,1043.4122725871107,940.4779962959697,383.1796958457864,1110.2858804147688,588.2800588886322
1533222972.582,1072.9232192414431,996.746332715995,518.1535894758321,1112.9341990502955,466.6644140960354
1533222972.585,1121.4030218933087,964.5953493841315,767.1794317813547,1136.7853474173853,715.5548046986785
1533222972.589,1121.4030218933087,956.5617191404298,736.0002640644317,1150.0323674774688,636.3621444012701
1533222972.593,1072.9232192414431,908.3270129641062,537.4354542508372,1139.433666052912,543.0304200469592
1533222972.5970001,1022.3324082639531,884.2096598759443,505.8462664890233,1112.9341990502955,743.8387251369643
1533222972.601,1018.1147086031452,900.2933827204045,660.1028650990842,1089.0830506832058,975.7576050117398
1533222972.605,1026.550107924761,835.9749536996209,824.204986016588,1081.1380947766256,588.2800588886322
1533222972.609,986.4970706136294,715.4046506158685,862.7687155665983,1067.8856478340924,398.78416350904536
1533222972.613,944.3416589577552,731.4883734603286,680.6156302137722,1089.0830506832058,820.1989387634077
1533222972.617,910.6130126426149,739.5220037040303,530.0508924177499,1075.8360306231225,721.2081133916473
1533222972.621,921.1507863089731,723.4547432166271,603.4873309087417,1044.0399263494526,534.5446646830254
1533222972.625,956.986123959297,699.3373901284654,832.8204481893582,1059.9352650450626,585.4534045421478
1533222972.6279998,965.4172062904718,707.3710203721669,925.948771500246,1094.385114836709,503.4340898982551
1533222972.6320002,948.5550416281221,779.7066172795955,733.5384633850659,1086.434732047679,777.7759542682192
1533222972.6360002,931.6928769657725,803.8239703677573,501.7435454250837,1081.1380947766256,786.2617096321529
1533222972.64,942.2306506321307,771.6729870358938,609.6409924021461,1086.434732047679,766.4635445578009
1533222972.644,990.7147702744372,763.6393567921922,863.9996159062812,1078.484349258649,834.3437951447909
1533222972.6479998,1045.5189639222942,852.0586765440809,1010.8716526832548,1083.7864134121523,831.5113484738259
1533222972.6520002,986.4970706136294,860.0923067877827,756.5130291791197,1094.385114836709,907.8773544247498
1533222972.6560001,916.9374036386063,876.1760296322428,492.71806320742263,1102.335497625739,1018.1805895069284
1533222972.66,956.986123959297,884.2096598759443,715.4866587447337,1102.335497625739,1032.319653563831
1533222972.664,1062.3811285846439,868.142399388541,914.0514685583282,1115.5825176858223,534.5446646830254
1533222972.667,1121.4030218933087,916.3606432078078,1038.7689796310299,1155.329004748522,489.2892335168719
1533222972.671,1085.5676842429848,908.3270129641062,845.9486514709589,1168.5814516910552,432.7271849647806
1533222972.675,1018.1147086031452,900.2933827204045,646.1537815226916,1160.6310689020254,588.2800588886322
1533222972.679,1003.359235275979,844.0250463003792,646.5638015675825,1147.384048841942,695.7566396243263
1533222972.6829998,1064.4921369102683,835.9749536996209,761.8458103777322,1126.1812191103788,562.8285851213112
1533222972.687,1112.971939562134,892.2432901196461,982.9743257354795,1173.8780889621087,667.4727191860405
1533222972.691,1089.7853839037928,876.1760296322428,826.2559264460529,1210.976257389282,503.4340898982551
1533222972.695,1016.0080172679618,876.1760296322428,558.7690996603171,1176.5318344800853,330.9097052465358
1533222972.699,986.4970706136294,892.2432901196461,696.2047939697286,1139.433666052912,726.8672144090967
1533222972.7029998,1045.5189639222942,876.1760296322428,868.9232172650127,1160.6310689020254,741.0062784659993
1533222972.707,1093.9987665741596,884.2096598759443,1088.8199920780671,1189.7788545401686,755.1511348473827
1533222972.71,1083.4609929078015,892.2432901196461,936.615174102481,1150.0323674774688,786.2617096321529
1533222972.714,1047.6256552574775,980.6626098715349,670.3592476564281,1102.335497625739,741.0062784659993
1533222972.718,999.145852605612,1004.7799629596966,663.3847058682319,1097.0334334722356,890.9058436968821
1533222972.7220001,1039.1945729263027,1004.7799629596966,807.7949419658397,1081.1380947766256,817.3722844169232
1533222972.726,1142.4828862164663,1101.2493753123438,1022.7689556251726,1142.0819846884388,769.2901989042853
1533222972.73,1100.3231575701511,1061.0482993797218,865.230516245964,1142.0819846884388,593.9391599060816
1533222972.734,967.5282146160962,996.746332715995,640.4101400741781,1081.1380947766256,806.059874706505
1533222972.738,942.2306506321307,956.5617191404298,724.5129811674049,1067.8856478340924,947.473684573454
1533222972.742,963.3105149552883,884.2096598759443,852.5123330092542,1057.2869464095359,783.4350552856685
1533222972.746,986.4970706136294,835.9749536996209,1048.205322098592,1089.0830506832058,780.6026086147035
1533222972.75,944.3416589577552,771.6729870358938,1025.2307563045383,1118.236263203799,1069.0893293660508
1533222972.7529998,889.5331483194573,779.7066172795955,718.3584794689905,1115.5825176858223,1052.117818638183
1533222972.7570002,893.7508479802652,763.6393567921922,607.1791917227804,1083.7864134121523,661.8136181685911
1533222972.7610002,927.4751773049645,731.4883734603286,801.2304202225343,1099.6871789902123,639.1887987477546
1533222972.765,973.8482886216466,819.9076932122174,1055.1790236817783,1118.236263203799,738.179624119515
1533222972.769,988.6037619488128,811.8740629685158,1011.2816727281456,1112.9341990502955,642.0212454187196
1533222972.7729998,944.3416589577552,731.4883734603286,760.2048899931583,1112.9341990502955,675.9584745499743
1533222972.7770002,912.7197039777983,755.6057265484905,613.7437134660858,1118.236263203799,610.9048783094687
1533222972.7810001,950.6617329633056,731.4883734603286,733.9484834299569,1123.532900474852,709.8957036812291
1533222972.785,1009.6836262719704,771.6729870358938,1043.6925809897616,1150.0323674774688,905.0507000782653
1533222972.789,1016.0080172679618,819.9076932122174,1113.0254582118037,1168.5814516910552,896.5649447143315
1533222972.792,980.172679617638,795.7903401240557,671.5893077911011,1157.9827502664987,596.7658142525661
1533222972.796,929.586185630589,779.7066172795955,520.6153901551978,1136.7853474173853,333.73635959302027
1533222972.8,959.0928152944804,868.142399388541,858.2559744577677,1139.433666052912,780.6026086147035
1533222972.804,1007.5769349367869,884.2096598759443,1016.6152941317681,1128.8349646283555,890.9058436968821
1533222972.8079998,1039.1945729263027,844.0250463003792,1067.4871868735972,1123.532900474852,873.940125293495
1533222972.812,999.145852605612,844.0250463003792,825.02586631138,1150.0323674774688,1162.4210537203617
1533222972.816,948.5550416281221,835.9749536996209,598.5637295500102,1118.236263203799,1086.0608400939184
1533222972.82,931.6928769657725,771.6729870358938,736.0002640644317,1094.385114836709,1170.9068090842957
1533222972.824,946.4483502929386,739.5220037040303,859.0768547525596,1099.6871789902123,885.2525350039133
1533222972.8279998,973.8482886216466,755.6057265484905,1009.6407523435719,1075.8360306231225,820.1989387634077
1533222972.832,969.6349059512797,755.6057265484905,777.8458343835896,1065.2373291985657,622.2230803443675
1533222972.835,927.4751773049645,731.4883734603286,534.1536134816895,1054.6386277740091,291.3133750978317
1533222972.839,902.18193031144,707.3710203721669,821.3331652923313,1059.9352650450626,871.1076786225301
1533222972.843,954.8794326241135,715.4046506158685,996.922569106862,1112.9341990502955,944.6470302269695
1533222972.8470001,1016.0080172679618,755.6057265484905,1059.281744745718,1134.131601899409,777.7759542682192
1533222972.851,1016.0080172679618,763.6393567921922,868.9232172650127,1134.131601899409,834.3437951447909
1533222972.855,992.8214616096208,868.142399388541,634.2564785807737,1123.532900474852,803.2332203600206
1533222972.859,978.0659882824546,884.2096598759443,642.8719407535439,1078.484349258649,613.7373249804336
1533222972.863,988.6037619488128,803.8239703677573,857.8459544128767,1070.5339664696191,571.3143404852451
1533222972.867,997.0391612704286,795.7903401240557,1060.1026250405098,1041.386180831476,755.1511348473827
1533222972.871,940.1239592969473,787.7567098803539,844.717751131276,1012.2383951933327,783.4350552856685
1533222972.875,900.0752389762565,844.0250463003792,562.0509404294648,1001.639693768776,517.5731539551577
1533222972.8779998,826.2978723404256,763.6393567921922,650.6665226315221,903.5976354297898,517.5731539551577
1533222972.8820002,790.4625346901017,755.6057265484905,913.6406083084272,842.6483186355267,630.7030433838208
1533222972.8860002,784.1381436941103,771.6729870358938,1133.5382233264916,800.2535129373001,650.5012084581729
1533222972.89,668.2053654024052,707.3710203721669,939.8970148716287,665.1078592886907,658.9869638221066
1533222972.894,535.4061054579092,683.253667284005,644.5128611381177,540.5663339470879,885.2525350039133
1533222972.8979998,461.6287388220782,626.9853308639798,731.0766627057002,484.9190813063281,854.1419602191429
1533222972.9020002,461.6287388220782,570.7169944439545,925.5379112503451,447.82091287915495,690.097538606877
1533222972.9060001,474.27752081406106,635.0189611076814,1101.9481953596678,368.32793875375523,834.3437951447909
1533222972.91,396.28245451742214,739.5220037040303,1015.3843937920852,259.6817521077624,922.0164184816525
1533222972.914,305.6429232192414,763.6393567921922,782.3585754924202,196.08954356042236,1218.9888945969335
1533222972.917,248.73203823620105,715.4046506158685,646.5638015675825,140.44229091966275,885.2525350039133
1533222972.921,236.08325624421832,683.253667284005,801.2304202225343,113.94282391704606,506.2607442447395
1533222972.925,259.26981190255935,651.1026839521415,1095.3845138213724,116.59114255257292,534.5446646830254
1533222972.929,227.65217391304347,610.9180703765765,1092.1026730522246,103.34412249248943,678.7851288964588
1533222972.9329998,225.54548257786,651.1026839521415,760.6149100380493,103.34412249248943,803.2332203600206
1533222972.937,217.11440024668516,691.2872975277068,728.2048419814435,74.19633685434636,992.723323415127
1533222972.941,227.65217391304347,683.253667284005,971.8970628833436,71.54259133636981,970.0985039942905
1533222972.945,330.9404872032069,675.2200370403035,1099.897254930203,108.64075976354297,681.6117832429431
1533222972.949,360.45143385753926,763.6393567921922,1103.9999759941425,116.59114255257292,789.0883639786374
1533222972.9529998,311.9673142152328,916.3606432078078,847.9995919004238,135.14022676615969,958.7860942838722
1533222972.957,307.75393154486585,924.4107358085663,720.4102601034652,169.590076557806,953.1269932664228
1533222972.96,352.0203515263645,908.3270129641062,792.2049380048732,230.53396646961914,673.1318202034898
1533222972.964,446.8732654949121,988.7127024722932,986.2561665046271,336.53183448008525,783.4350552856685
1533222972.968,497.46407647240204,988.7127024722932,1042.4616806500785,392.1736602383952,1040.8054089277648
1533222972.9720001,461.6287388220782,900.2933827204045,819.6922449077575,413.37648996995836,757.977789193867
1533222972.976,512.2195497995684,948.5116265396714,740.1021449233613,469.0237426107181,972.9251583407748
1533222972.98,575.4548257786,980.6626098715349,799.9995198828514,487.5728268243047,1001.2090787790607
1533222972.984,628.1523280912735,916.3606432078078,927.1796718399289,535.2696966760345,579.7943035246984
1533222972.988,735.6583410422448,996.746332715995,1085.1281312640285,654.5091578641341,585.4534045421478
1533222972.992,718.7918593894542,996.746332715995,758.1539495636936,715.4584746583971,548.683728739928
1533222972.996,727.22725871107,932.444366052268,562.0509404294648,755.204961721097,749.4920338299332
1533222973.0,830.5112550107925,980.6626098715349,783.9994958769939,853.2470200600833,718.3814590451628
1533222973.0029998,912.7197039777983,980.6626098715349,946.871556659825,914.1963368543463,579.7943035246984
1533222973.0070002,982.2836879432624,892.2432901196461,1047.3844418038002,972.4919081306329,616.5639793269181
1533222973.0110002,1018.1147086031452,924.4107358085663,695.3847538799467,1049.3365636205058,418.5823285833974
1533222973.015,992.8214616096208,996.746332715995,495.17902368177835,1091.7367962011822,588.2800588886322
1533222973.019,1013.9013259327783,956.5617191404298,758.5639696085844,1144.7303033239655,820.1989387634077
1533222973.0229998,1136.1584952204748,964.5953493841315,957.53795926206,1237.4757243918984,823.0313854343726
1533222973.0270002,1201.504779525131,1085.1656524678838,1058.461704655936,1279.8759569725748,970.0985039942905
1533222973.0310001,1182.531606537157,1101.2493753123438,815.1795037989269,1314.3203798817715,712.728150352194
1533222973.035,1144.5895775516497,996.746332715995,603.0764706588408,1354.0722938269212,749.4920338299332
1533222973.039,1171.9938328707985,980.6626098715349,605.9482913830975,1380.566333947088,794.7474649960867
1533222973.042,1262.6333641689794,996.746332715995,801.6412804724353,1399.1154181606744,692.929985277842
1533222973.046,1311.113166820845,972.6289796278331,990.3588875685667,1428.2632037988178,486.4625791703874
1533222973.05,1321.6552574776442,972.6289796278331,824.615006061479,1457.4164163194107,576.967649178214
1533222973.054,1281.6065371569534,1053.0146691360203,607.1791917227804,1449.4660335303809,893.7382903678471
1533222973.0579998,1275.2821461609622,1053.0146691360203,561.6409203845739,1462.7130535904641,752.3244805008982
1533222973.062,1344.8418131359851,996.746332715995,750.3585274807053,1505.1132861711405,763.6368902113164
1533222973.066,1378.5661424606847,1028.8973160478583,1021.9489155353906,1523.6623703847272,593.9391599060816
1533222973.07,1380.677150786309,1053.0146691360203,927.9997119297109,1558.1067932939238,627.8763890373364
1533222973.074,1346.9485044711687,980.6626098715349,534.5636335265805,1542.2114545983138,766.4635445578009
1533222973.0779998,1351.1662041319767,1028.8973160478583,616.6155341903425,1505.1132861711405,755.1511348473827
1533222973.082,1389.108233117484,1028.8973160478583,882.0514205466134,1552.8101560228704,913.5364554421991
1533222973.085,1418.619179771816,956.5617191404298,994.8716286773973,1589.9083244500437,690.097538606877
1533222973.089,1403.86370644465,1061.0482993797218,925.5379112503451,1579.3041961430372,627.8763890373364
1533222973.093,1374.3527597903176,1077.132022224182,672.820208130784,1550.156410504894,1032.319653563831
1533222973.0970001,1359.5972864631515,1028.8973160478583,570.256382557344,1560.7551119294505,871.1076786225301
1533222973.101,1387.0015417823004,1053.0146691360203,752.4103081151801,1571.359240236457,721.2081133916473
1533222973.105,1452.3435090965156,1117.3166357997472,955.4870188325951,1595.204961721097,947.473684573454
1533222973.109,1431.267961763799,1157.5177117323692,909.9487474943886,1629.6548115127434,854.1419602191429
1533222973.113,1368.0283687943263,1141.433988887909,590.359127627141,1587.254578932067,707.0690493347446
1533222973.117,1389.108233117484,1189.6686950642327,568.6154621727702,1568.7054947184804,823.0313854343726
1533222973.121,1420.7258711069996,1197.7023253079342,834.871388618823,1552.8101560228704,511.91984526218886
1533222973.1239998,1437.5880357693493,1149.4676191316107,1021.9489155353906,1539.5577090803372,582.6267501956634
1533222973.1279998,1424.9435707678076,1069.0983919804803,1014.5643537023034,1542.2114545983138,970.0985039942905
1533222973.1320002,1357.490595127968,1093.1992827115853,708.5129571615474,1515.7119875956973,930.5021738455863
1533222973.1360002,1306.899784150478,1149.4676191316107,566.1536614934043,1494.509157864134,783.4350552856685
1533222973.14,1325.868640148011,1117.3166357997472,701.9484354182421,1521.0086248667506,789.0883639786374
1533222973.144,1355.3795868023435,1077.132022224182,926.358791545137,1523.6623703847272,791.9150183251218
1533222973.1479998,1355.3795868023435,1101.2493753123438,952.2051780634475,1528.9590076557806,613.7373249804336
1533222973.1520002,1355.3795868023435,1141.433988887909,658.0510844646094,1542.2114545983138,732.526315426546
1533222973.1560001,1309.0064754856614,1093.1992827115853,477.5380792913471,1494.509157864134,681.6117832429431
1533222973.16,1294.251002158495,1053.0146691360203,681.845690348445,1473.311755015021,619.3906336734026
1533222973.164,1351.1662041319767,1036.93094629156,968.205202069305,1489.2125205930806,865.4543699295612
1533222973.167,1327.9796484736355,948.5116265396714,1034.6662585670904,1457.4164163194107,1052.117818638183
1533222973.171,1254.2022818378045,980.6626098715349,638.3591996447133,1433.565267952321,777.7759542682192
1533222973.175,1231.0157261794634,1053.0146691360203,451.69253297804664,1457.4164163194107,729.6938687555811
1533222973.179,1245.7711995066297,1004.7799629596966,724.9230012122958,1446.8122880124042,1162.4210537203617
1533222973.1829998,1266.8510638297873,972.6289796278331,877.9486994826738,1415.0161837387343,995.5557700860919
1533222973.187,1268.9577551649706,964.5953493841315,948.5124770443988,1415.0161837387343,873.940125293495
1533222973.191,1241.5534998458218,948.5116265396714,716.3075390395256,1401.769163678651,774.9492999217347
1533222973.195,1197.2870798643232,940.4779962959697,461.53805528548963,1391.1650353716445,254.54369929561196
1533222973.199,1201.504779525131,1020.8636858041567,501.3335253801928,1369.9676325225312,333.73635959302027
1533222973.2029998,1260.5266728337958,1044.9810388923186,781.5385354026382,1356.720612462448,644.847899765204
1533222973.207,1292.1443108233118,996.746332715995,1014.5643537023034,1364.670995251478,831.5113484738259
1533222973.21,1256.3089731729879,996.746332715995,716.3075390395256,1354.0722938269212,715.5548046986785
1533222973.214,1239.4468085106382,1085.1656524678838,507.8972069184881,1354.0722938269212,924.8488651526173
1533222973.218,1237.340117175455,1069.0983919804803,629.3328772220422,1348.770229673418,1247.2728150352193
1533222973.2220001,1247.877890841813,1012.8300555604553,721.6411604431481,1338.1715282488613,644.847899765204
1533222973.226,1271.0644465001542,1085.1656524678838,879.1795998223566,1340.819846884388,322.42394988260196
1533222973.23,1256.3089731729879,1077.132022224182,732.717583090274,1364.670995251478,506.2607442447395
1533222973.234,1222.5846438482886,1044.9810388923186,475.89715890677326,1346.1219110378913,766.4635445578009
1533222973.238,1201.504779525131,1044.9810388923186,539.897254930203,1314.3203798817715,721.2081133916473
1533222973.242,1222.5846438482886,1061.0482993797218,740.5130051732623,1324.919081306328,735.3529697730305
1533222973.246,1279.495528831329,1117.3166357997472,850.8714126246804,1346.1219110378913,794.7474649960867
1533222973.2489998,1271.0644465001542,1141.433988887909,709.3329972513293,1367.3193138870045,780.6026086147035
1533222973.2529998,1216.2602528522973,1125.3667284005057,534.5636335265805,1322.2707626708013,814.5456300704388
1533222973.2570002,1186.7493061979649,1093.1992827115853,567.3845618330872,1266.6235100300416,749.4920338299332
1533222973.2610002,1243.6601911810053,1077.132022224182,704.0002160527168,1306.3754239751913,452.52535003913266
1533222973.265,1268.9577551649706,1004.7799629596966,874.2559984636251,1332.8694640953581,619.3906336734026
1533222973.269,1190.9626888683317,964.5953493841315,872.6150780790513,1309.023742610718,1015.3539351604439
1533222973.2729998,1125.6207215541165,1004.7799629596966,442.25619051048454,1261.3268727589882,732.526315426546
1533222973.2770002,1125.6207215541165,972.6289796278331,370.87153265396756,1224.2287043318152,461.0111054030665
1533222973.2810001,1153.0206598828245,996.746332715995,803.6922209019001,1224.2287043318152,458.17865873210155
1533222973.285,1193.0736971939561,1044.9810388923186,991.9998079531406,1213.6300029072584,627.8763890373364
1533222973.289,1178.31822386679,964.5953493841315,905.4360063855581,1237.4757243918984,684.4442299139081
1533222973.292,1127.7274128893,996.746332715995,585.4355262684095,1253.3764899699584,800.4007736890557
1533222973.296,1098.2164662349676,1085.1656524678838,478.358959586139,1234.8274057563717,995.5557700860919
1533222973.3,1096.109774899784,1036.93094629156,731.4866827505912,1234.8274057563717,1026.6663448708623
1533222973.304,1150.9139685476412,980.6626098715349,970.6661625436607,1266.6235100300416,1088.8874944404029
1533222973.3079998,1159.345050878816,988.7127024722932,969.4361024089878,1269.2772555480183,1114.3447605322042
1533222973.312,1123.509713228492,1044.9810388923186,560.410020044891,1226.8770229673419,1083.2283934229536
1533222973.316,1104.540857230959,1036.93094629156,401.2306602811086,1216.278321542785,692.929985277842
1533222973.32,1131.945112550108,1012.8300555604553,695.7947739248376,1229.5253416028686,534.5446646830254
1533222973.324,1155.131668208449,1012.8300555604553,868.5123570151117,1242.7777885454018,438.38049365774947
1533222973.3279998,1134.0518038852913,1036.93094629156,979.2816247164308,1245.4261071809283,576.967649178214
1533222973.332,1072.9232192414431,980.6626098715349,741.7430653079351,1224.2287043318152,738.179624119515
1533222973.335,1028.6567992599446,972.6289796278331,513.6408483670016,1208.3279387537552,421.4147752543623
1533222973.339,1051.8433549182855,1004.7799629596966,580.512765114688,1203.0313014827018,492.12168018783683
1533222973.343,1096.109774899784,940.4779962959697,858.6668347076687,1221.5749588138385,808.8865290529894
1533222973.3470001,1089.7853839037928,916.3606432078078,1070.7690276427447,1248.074425816455,899.3915990608159
1533222973.351,1028.6567992599446,964.5953493841315,705.6411364372907,1226.8770229673419,797.5741193425712
1533222973.355,982.2836879432624,948.5116265396714,422.97432573547945,1192.4271731756953,692.929985277842
1533222973.359,986.4970706136294,876.1760296322428,748.7176070961315,1210.976257389282,1052.117818638183
1533222973.363,1056.0567375886526,908.3270129641062,997.743449401654,1226.8770229673419,1233.1279586538362
1533222973.367,1091.8920752389763,964.5953493841315,1025.2307563045383,1218.9266401783118,1023.8338981998972
1533222973.371,1043.4122725871107,932.444366052268,765.9485314416718,1192.4271731756953,859.7952689121119
1533222973.3739998,1009.6836262719704,876.1760296322428,541.9490355646777,1179.180153115612,760.8044435403515
1533222973.3779998,1028.6567992599446,900.2933827204045,619.8973749594901,1187.1305359046419,743.8387251369643
1533222973.3820002,1077.13660191181,916.3606432078078,840.2050100224454,1226.8770229673419,551.516175410893
1533222973.3860002,1093.9987665741596,844.0250463003792,988.3079471391019,1253.3764899699584,503.4340898982551
1533222973.39,1079.2476102374344,787.7567098803539,816.8204241835008,1229.5253416028686,873.940125293495
1533222973.394,1056.0567375886526,924.4107358085663,534.1536134816895,1234.8274057563717,950.3003389199383
1533222973.3979998,1083.4609929078015,948.5116265396714,686.3592716622856,1248.074425816455,664.6460648395561
1533222973.4020002,1136.1584952204748,795.7903401240557,971.0770227935616,1269.2772555480183,528.885563665576
1533222973.4060001,1117.1896392229417,755.6057265484905,1039.9998799707128,1279.8759569725748,212.1207148004234
1533222973.41,1096.109774899784,795.7903401240557,873.8459784187341,1285.1725942436283,288.4809284268667
1533222973.414,1068.7055195806352,916.3606432078078,613.7437134660858,1258.6731272410118,517.5731539551577
1533222973.417,1003.359235275979,948.5116265396714,618.2564545749162,1142.0819846884388,285.65427408038227
1533222973.421,1030.763490595128,972.6289796278331,847.5895718555328,1126.1812191103788,313.9381945186682
1533222973.425,1070.8122109158187,980.6626098715349,1094.1536134816895,1152.6806861129955,1015.3539351604439
1533222973.429,1034.9811902559359,932.444366052268,929.6406323142846,1171.229770326582,1074.7484303835001
1533222973.4329998,1007.5769349367869,940.4779962959697,566.1536614934043,1181.8284717511387,608.0782239629843
1533222973.437,1016.0080172679618,940.4779962959697,550.1536374875469,1163.279387537552,752.3244805008982
1533222973.441,1070.8122109158187,940.4779962959697,803.2822008570091,1189.7788545401686,653.3336551291378
1533222973.445,1138.2651865556584,940.4779962959697,1083.8972309243456,1216.278321542785,664.6460648395561
1533222973.449,1138.2651865556584,860.0923067877827,1012.1025530229376,1218.9266401783118,1179.3925644482295
1533222973.4529998,1083.4609929078015,860.0923067877827,615.3846338506596,1218.9266401783118,755.1511348473827
1533222973.457,1056.0567375886526,924.4107358085663,582.9745657940538,1216.278321542785,557.1694841038619
1533222973.46,1129.8341042244836,940.4779962959697,816.8204241835008,1208.3279387537552,673.1318202034898
1533222973.464,1167.7761332099908,956.5617191404298,1010.0507723884627,1224.2287043318152,729.6938687555811
1533222973.468,1146.700585877274,956.5617191404298,1015.3843937920852,1234.8274057563717,1100.199904150821
1533222973.4720001,1131.945112550108,964.5953493841315,569.4355022625521,1232.179087120845,811.7131833994739
1533222973.476,1064.4921369102683,980.6626098715349,489.43622243827497,1221.5749588138385,667.4727191860405
1533222973.48,1062.3811285846439,956.5617191404298,806.9740616710477,1200.3775559647252,913.5364554421991
1533222973.484,1140.3761948812828,948.5116265396714,991.1797678633586,1197.7292373291987,772.1168532507697
1533222973.488,1163.5627505396237,956.5617191404298,1101.5381753147767,1240.1240430274252,868.2810242760456
1533222973.492,1083.4609929078015,932.444366052268,642.4610805036428,1250.7281713344316,545.8570743934437
1533222973.496,1053.950046253469,972.6289796278331,460.7180151957078,1203.0313014827018,308.2790935012188
1533222973.4989998,1098.2164662349676,972.6289796278331,904.6151260907661,1181.8284717511387,814.5456300704388
1533222973.5029998,1140.3761948812828,1004.7799629596966,1075.6917887964664,1184.4822172691152,953.1269932664228
1533222973.5070002,1134.0518038852913,996.746332715995,1051.4871628677397,1192.4271731756953,879.5934339864639
1533222973.5110002,1081.354301572618,924.4107358085663,813.5385834143531,1173.8780889621087,927.6755194991018
1533222973.515,1032.8701819303114,908.3270129641062,637.1282993050304,1157.9827502664987,989.8966690686425
1533222973.519,1102.4341658957755,884.2096598759443,762.2566706276332,1173.8780889621087,817.3722844169232
1533222973.5229998,1214.1535615171138,908.3270129641062,983.7943658252614,1203.0313014827018,715.5548046986785
1533222973.5270002,1146.700585877274,940.4779962959697,1028.512597073686,1205.6796201182285,692.929985277842
1533222973.5310001,1032.8701819303114,892.2432901196461,799.5894998379605,1200.3775559647252,825.8580397808571
1533222973.535,1030.763490595128,900.2933827204045,684.3074910278108,1184.4822172691152,958.7860942838722
1533222973.539,1058.1677459142768,876.1760296322428,867.2822968804388,1221.5749588138385,1170.9068090842957
1533222973.542,1102.4341658957755,803.8239703677573,1055.5898839316794,1237.4757243918984,1221.815548943418
1533222973.546,1112.971939562134,779.7066172795955,1073.6408483670016,1168.5814516910552,907.8773544247498
1533222973.55,1039.1945729263027,763.6393567921922,788.9230972357255,1181.8284717511387,839.9971038377597
1533222973.554,1047.6256552574775,860.0923067877827,597.7436894602283,1240.1240430274252,786.2617096321529
1533222973.5579998,1131.945112550108,932.444366052268,834.871388618823,1203.0313014827018,622.2230803443675
1533222973.562,1121.4030218933087,892.2432901196461,1099.487234885312,1131.4832832638822,755.1511348473827
1533222973.566,1106.6475485661424,876.1760296322428,1203.6919808433258,1097.0334334722356,1029.4929992173466
1533222973.57,1100.3231575701511,908.3270129641062,973.1279632230264,1150.0323674774688,882.4200883329484
1533222973.574,1049.736663583102,892.2432901196461,658.8719647594013,1192.4271731756953,698.5832939708108
1533222973.5779998,1030.763490595128,908.3270129641062,765.5385113967808,1128.8349646283555,854.1419602191429
1533222973.582,1072.9232192414431,868.142399388541,1084.7181112191374,1142.0819846884388,936.1612748630357
1533222973.585,1081.354301572618,827.9413234559191,1242.256550598346,1160.6310689020254,905.0507000782653
1533222973.589,1030.763490595128,868.142399388541,1047.794461848691,1144.7303033239655,797.5741193425712
1533222973.593,1009.6836262719704,827.9413234559191,600.6155101844851,1123.532900474852,282.82761973389785
1533222973.5970001,1022.3324082639531,803.8239703677573,756.5130291791197,1128.8349646283555,571.3143404852451
1533222973.601,1041.3012642614863,835.9749536996209,1157.3328292103274,1150.0323674774688,1114.3447605322042
1533222973.605,1081.354301572618,924.4107358085663,1166.3591516329984,1168.5814516910552,741.0062784659993
1533222973.609,1062.3811285846439,940.4779962959697,1054.3589835919965,1210.976257389282,627.8763890373364
1533222973.613,971.7415972864632,924.4107358085663,815.1795037989269,1200.3775559647252,701.4099483172953
1533222973.617,1011.7946345975948,956.5617191404298,774.153973569551,1179.180153115612,763.6368902113164
1533222973.621,1081.354301572618,964.5953493841315,910.7687875841706,1165.9331330555287,738.179624119515
1533222973.6239998,1106.6475485661424,964.5953493841315,1109.743617442656,1179.180153115612,732.526315426546
1533222973.6279998,1093.9987665741596,876.1760296322428,1113.8463385065957,1200.3775559647252,896.5649447143315
1533222973.6320002,1041.3012642614863,868.142399388541,775.7948939541249,1171.229770326582,749.4920338299332
1533222973.6360002,1064.4921369102683,868.142399388541,694.1538535402639,1171.229770326582,667.4727191860405
1533222973.64,1150.9139685476412,835.9749536996209,912.8205682186453,1221.5749588138385,757.977789193867
1533222973.644,1190.9626888683317,948.5116265396714,1079.384489815515,1195.080918693672,642.0212454187196
1533222973.6479998,1182.531606537157,956.5617191404298,1037.1280592464561,1144.7303033239655,591.1067132351167
1533222973.6520002,1148.8072772124576,980.6626098715349,746.2566466217758,1131.4832832638822,687.2708842603926
1533222973.6560001,1119.2963305581252,1020.8636858041567,678.1538295344064,1136.7853474173853,752.3244805008982
1533222973.66,1153.0206598828245,996.746332715995,875.076878758417,1144.7303033239655,893.7382903678471
1533222973.664,1184.6426148627813,980.6626098715349,1026.871676689112,1163.279387537552,817.3722844169232
1533222973.667,1163.5627505396237,940.4779962959697,1049.025362188374,1224.2287043318152,627.8763890373364
1533222973.671,1102.4341658957755,924.4107358085663,756.9230492240107,1176.5318344800853,642.0212454187196
1533222973.675,1072.9232192414431,892.2432901196461,532.9227131420066,1112.9341990502955,955.9594399373877
1533222973.679,1100.3231575701511,892.2432901196461,866.4614165856469,1120.8845818393256,865.4543699295612
1533222973.6829998,1121.4030218933087,940.4779962959697,1240.2047699638713,1150.0323674774688,605.2515696164999
1533222973.687,1100.3231575701511,908.3270129641062,1213.128323310888,1155.329004748522,777.7759542682192
1533222973.691,1098.2164662349676,892.2432901196461,887.7950619951268,1160.6310689020254,757.977789193867
1533222973.695,1053.950046253469,908.3270129641062,704.4102360976078,1168.5814516910552,642.0212454187196
1533222973.699,1058.1677459142768,916.3606432078078,905.0251461356571,1160.6310689020254,947.473684573454
1533222973.7029998,1089.7853839037928,908.3270129641062,1103.1790956993507,1142.0819846884388,899.3915990608159
1533222973.707,1100.3231575701511,908.3270129641062,1131.0764226471258,1150.0323674774688,449.6929033681677
1533222973.71,1064.4921369102683,884.2096598759443,870.5641376495865,1168.5814516910552,477.97682380645364
1533222973.714,1009.6836262719704,916.3606432078078,637.1282993050304,1150.0323674774688,489.2892335168719
1533222973.718,1047.6256552574775,972.6289796278331,792.6149580497641,1165.9331330555287,432.7271849647806
1533222973.7220001,1087.6786925686092,980.6626098715349,1076.9226891361493,1197.7292373291987,644.847899765204
1533222973.726,1091.8920752389763,1020.8636858041567,1234.0511084704667,1203.0313014827018,588.2800588886322
1533222973.73,1077.13660191181,1053.0146691360203,966.5642816847311,1213.6300029072584,489.2892335168719
1533222973.734,1077.13660191181,1053.0146691360203,593.6409683962887,1197.7292373291987,559.9961384503463
1533222973.738,1056.0567375886526,980.6626098715349,805.7431613313648,1168.5814516910552,492.12168018783683
1533222973.742,1104.540857230959,988.7127024722932,1135.1791437110655,1195.080918693672,543.0304200469592
1533222973.746,1165.6694418748073,1053.0146691360203,1169.6409924021461,1203.0313014827018,418.5823285833974
1533222973.7489998,1087.6786925686092,1044.9810388923186,934.1533734231152,1197.7292373291987,350.7078703208879
1533222973.7529998,1045.5189639222942,1069.0983919804803,699.0766146939853,1203.0313014827018,743.8387251369643
1533222973.7570002,1077.13660191181,1020.8636858041567,756.9230492240107,1195.080918693672,780.6026086147035
1533222973.7610002,1148.8072772124576,988.7127024722932,885.3332613157611,1195.080918693672,506.2607442447395
1533222973.765,1182.531606537157,1044.9810388923186,1083.8972309243456,1229.5253416028686,644.847899765204
1533222973.769,1138.2651865556584,1061.0482993797218,1053.1280832523137,1208.3279387537552,927.6755194991018
1533222973.7729998,1075.0299105766267,1044.9810388923186,559.589979955109,1142.0819846884388,492.12168018783683
1533222973.7770002,1064.4921369102683,996.746332715995,628.9228571771512,1123.532900474852,466.6644140960354
1533222973.7810001,1106.6475485661424,972.6289796278331,1063.3844658096575,1144.7303033239655,746.6653794834488
1533222973.785,1125.6207215541165,996.746332715995,1151.589187761814,1163.279387537552,814.5456300704388
1533222973.789,1081.354301572618,924.4107358085663,973.1279632230264,1163.279387537552,848.4828592016936
1533222973.792,1064.4921369102683,835.9749536996209,645.3329012278996,1168.5814516910552,684.4442299139081
1533222973.796,1047.6256552574775,844.0250463003792,626.0510364528946,1181.8284717511387,690.097538606877
1533222973.8,1064.4921369102683,860.0923067877827,850.4613925797895,1171.229770326582,661.8136181685911
1533222973.804,1104.540857230959,844.0250463003792,1031.7944378428338,1163.279387537552,695.7566396243263
1533222973.8079998,1077.13660191181,860.0923067877827,873.0250981239423,1157.9827502664987,681.6117832429431
1533222973.812,1053.950046253469,868.142399388541,633.8464585358828,1165.9331330555287,876.7667796399794
1533222973.816,1060.2744372494603,932.444366052268,681.435670303554,1165.9331330555287,1224.6422032899025
1533222973.82,1110.8652482269504,972.6289796278331,809.8458823953044,1189.7788545401686,687.2708842603926
1533222973.824,1117.1896392229417,892.2432901196461,992.4098279980316,1189.7788545401686,698.5832939708108
1533222973.8279998,1104.540857230959,827.9413234559191,967.7943418194039,1157.9827502664987,885.2525350039133
1533222973.831,1075.0299105766267,852.0586765440809,554.2563585514865,1139.433666052912,879.5934339864639
1533222973.835,1043.4122725871107,932.444366052268,482.4616806500786,1142.0819846884388,1267.0709801095716
1533222973.839,1102.4341658957755,932.444366052268,810.6667626900963,1179.180153115612,964.4451953013215
1533222973.843,1157.2383595436324,908.3270129641062,989.5380072737748,1152.6806861129955,865.4543699295612
1533222973.8470001,1169.8871415356152,932.444366052268,944.4097559804592,1131.4832832638822,825.8580397808571
1533222973.851,1146.700585877274,1004.7799629596966,642.8719407535439,1165.9331330555287,752.3244805008982
1533222973.855,1066.5988282454518,980.6626098715349,471.3844177979427,1168.5814516910552,930.5021738455863
1533222973.859,1075.0299105766267,835.9749536996209,630.563777561725,1176.5318344800853,760.8044435403515
1533222973.863,1144.5895775516497,835.9749536996209,916.5124290326839,1208.3279387537552,797.5741193425712
1533222973.867,1136.1584952204748,908.3270129641062,989.1279872288839,1210.976257389282,721.2081133916473
1533222973.871,1072.9232192414431,892.2432901196461,628.1028170873693,1210.976257389282,673.1318202034898
1533222973.8739998,1032.8701819303114,924.4107358085663,371.2823929038685,1179.180153115612,834.3437951447909
1533222973.8779998,1068.7055195806352,908.3270129641062,658.8719647594013,1165.9331330555287,446.8662490216833
1533222973.8820002,1108.754239901326,835.9749536996209,973.9488435178183,1203.0313014827018,610.9048783094687
1533222973.8860002,1115.0786308973172,876.1760296322428,938.6669547369559,1216.278321542785,774.9492999217347
1533222973.89,1083.4609929078015,924.4107358085663,608.8201121073542,1218.9266401783118,418.5823285833974
1533222973.894,1062.3811285846439,916.3606432078078,478.358959586139,1192.4271731756953,571.3143404852451
1533222973.8979998,1098.2164662349676,972.6289796278331,639.5892597793862,1171.229770326582,715.5548046986785
1533222973.9020002,1138.2651865556584,1061.0482993797218,791.7949179599823,1179.180153115612,667.4727191860405
1533222973.9060001,1131.945112550108,964.5953493841315,954.2561184929123,1213.6300029072584,1004.0415254500257
1533222973.91,1108.754239901326,932.444366052268,773.333093274759,1200.3775559647252,1023.8338981998972
1533222973.914,1077.13660191181,988.7127024722932,373.7433533782244,1184.4822172691152,1012.521488489479
1533222973.917,1072.9232192414431,932.444366052268,559.589979955109,1173.8780889621087,941.8145835560045
1533222973.921,1079.2476102374344,940.4779962959697,911.9996879238535,1147.384048841942,800.4007736890557
1533222973.925,1064.4921369102683,972.6289796278331,941.9487955061035,1152.6806861129955,718.3814590451628
1533222973.929,1028.6567992599446,908.3270129641062,745.4357663269838,1155.329004748522,763.6368902113164
1533222973.9329998,973.8482886216466,860.0923067877827,463.99985596485544,1142.0819846884388,373.3326897417244
1533222973.937,961.2038236201048,844.0250463003792,570.256382557344,1142.0819846884388,427.0680839473312
1533222973.941,1001.2525439407956,803.8239703677573,847.9995919004238,1144.7303033239655,873.940125293495
1533222973.945,1070.8122109158187,819.9076932122174,922.2560704811974,1168.5814516910552,893.7382903678471
1533222973.949,1068.7055195806352,835.9749536996209,732.717583090274,1165.9331330555287,644.847899765204
1533222973.9529998,984.3903792784458,852.0586765440809,383.1796958457864,1120.8845818393256,424.2414296008468
1533222973.956,999.145852605612,876.1760296322428,521.8462904948808,1097.0334334722356,735.3529697730305
1533222973.96,1028.6567992599446,860.0923067877827,916.923289282585,1102.335497625739,814.5456300704388
1533222973.964,1018.1147086031452,876.1760296322428,996.1025290170802,1123.532900474852,627.8763890373364
1533222973.968,988.6037619488128,884.2096598759443,836.5123090033968,1112.9341990502955,523.2322549726072
1533222973.9720001,938.0172679617638,860.0923067877827,553.8463385065957,1112.9341990502955,523.2322549726072
1533222973.976,910.6130126426149,803.8239703677573,588.7182072425671,1112.9341990502955,1131.3104789355914
1533222973.98,940.1239592969473,827.9413234559191,811.4868027798783,1089.0830506832058,1397.1723802661022
1533222973.984,978.0659882824546,852.0586765440809,915.2815286930011,1110.2858804147688,859.7952689121119
1533222973.988,929.586185630589,892.2432901196461,860.7177751371335,1089.0830506832058,780.6026086147035
1533222973.992,925.3684859697811,932.444366052268,598.5637295500102,1067.8856478340924,1029.4929992173466
1533222973.996,906.395312981807,900.2933827204045,446.76893161931514,1086.434732047679,636.3621444012701
1533222973.9989998,923.2617946345975,827.9413234559191,660.5128851439752,1091.7367962011822,271.5152100234796
1533222974.0029998,1007.5769349367869,844.0250463003792,924.3078511156722,1097.0334334722356,511.91984526218886
1533222974.0070002,961.2038236201048,876.1760296322428,1002.2561905104845,1118.236263203799,780.6026086147035
1533222974.0110002,897.9642306506321,892.2432901196461,598.1537095051192,1097.0334334722356,435.55383931126505
1533222974.015,895.8575393154487,940.4779962959697,445.5380312796322,1044.0399263494526,613.7373249804336
1533222974.019,954.8794326241135,932.444366052268,852.9231932591553,1065.2373291985657,752.3244805008982
1533222974.0229998,973.8482886216466,860.0923067877827,1049.4353822332648,1091.7367962011822,472.32351511348475
1533222974.0270002,935.9062596361393,900.2933827204045,999.7943898311188,1099.6871789902123,475.15016945996916
1533222974.0310001,933.7995683009559,916.3606432078078,710.1538775461213,1120.8845818393256,806.059874706505
1533222974.035,954.8794326241135,860.0923067877827,585.8463865183105,1102.335497625739,1063.4302283486013
1533222974.039,956.986123959297,860.0923067877827,805.7431613313648,1104.9838162612657,1238.7870596712855
1533222974.042,975.959296947271,892.2432901196461,919.3842497569407,1144.7303033239655,950.3003389199383
1533222974.046,984.3903792784458,908.3270129641062,970.6661625436607,1118.236263203799,741.0062784659993
1533222974.05,961.2038236201048,932.444366052268,792.2049380048732,1081.1380947766256,992.723323415127
1533222974.054,954.8794326241135,956.5617191404298,591.5900279668239,1104.9838162612657,1023.8338981998972
1533222974.0579998,956.986123959297,876.1760296322428,773.333093274759,1112.9341990502955,987.070014722158
1533222974.062,1020.2257169287697,884.2096598759443,1013.3334533626205,1120.8845818393256,743.8387251369643
1533222974.066,1034.9811902559359,860.0923067877827,1090.8717727125418,1147.384048841942,588.2800588886322
1533222974.07,1020.2257169287697,852.0586765440809,797.9485794533866,1160.6310689020254,562.8285851213112
1533222974.074,997.0391612704286,884.2096598759443,525.1281312640284,1155.329004748522,559.9961384503463
1533222974.0779998,1001.2525439407956,940.4779962959697,813.1277231644522,1128.8349646283555,800.4007736890557
1533222974.081,1068.7055195806352,972.6289796278331,1120.0,1123.532900474852,953.1269932664228
1533222974.085,1077.13660191181,892.2432901196461,1098.66635459052,1142.0819846884388,707.0690493347446
1533222974.089,1041.3012642614863,876.1760296322428,844.717751131276,1155.329004748522,811.7131833994739
1533222974.093,1032.8701819303114,908.3270129641062,553.4354782566946,1128.8349646283555,1049.2911642916988
1533222974.0970001,1049.736663583102,932.444366052268,747.0766867115576,1128.8349646283555,766.4635445578009
1533222974.101,1081.354301572618,924.4107358085663,1117.9482193655251,1157.9827502664987,596.7658142525661
1533222974.105,1119.2963305581252,948.5116265396714,1176.2046739404416,1152.6806861129955,777.7759542682192
1533222974.109,1096.109774899784,1004.7799629596966,958.7688596017429,1142.0819846884388,757.977789193867
1533222974.113,1053.950046253469,980.6626098715349,657.6410644197184,1131.4832832638822,862.6219232585962
1533222974.117,1081.354301572618,1036.93094629156,729.0257222762355,1144.7303033239655,905.0507000782653
1533222974.121,1134.0518038852913,1004.7799629596966,1053.1280832523137,1208.3279387537552,789.0883639786374
1533222974.1239998,1075.0299105766267,819.9076932122174,1165.5382713382064,1171.229770326582,721.2081133916473
1533222974.1279998,1005.4702436016034,803.8239703677573,984.6152461200533,1118.236263203799,574.1409948317295
1533222974.1320002,986.4970706136294,819.9076932122174,734.3585034748479,1142.0819846884388,690.097538606877
1533222974.1360002,935.9062596361393,755.6057265484905,707.6920768667555,1134.131601899409,647.6745541116884
1533222974.14,973.8482886216466,739.5220037040303,969.4361024089878,1123.532900474852,769.2901989042853
1533222974.144,1018.1147086031452,763.6393567921922,1229.9483874065272,1112.9341990502955,1009.6948341429945
1533222974.1479998,1005.4702436016034,795.7903401240557,1120.820040089782,1134.131601899409,975.7576050117398
1533222974.1520002,982.2836879432624,819.9076932122174,777.0257942938077,1144.7303033239655,919.189764135168
1533222974.1560001,984.3903792784458,827.9413234559191,741.7430653079351,1118.236263203799,613.7373249804336
1533222974.16,1020.2257169287697,892.2432901196461,1028.512597073686,1147.384048841942,568.4818938142802
1533222974.164,1064.4921369102683,884.2096598759443,1250.0511324763243,1189.7788545401686,1134.1371332820759
1533222974.167,1060.2744372494603,795.7903401240557,1109.332757192755,1147.384048841942,998.3824244325763
1533222974.171,1011.7946345975948,747.555633947732,760.2048899931583,1123.532900474852,743.8387251369643
1533222974.175,990.7147702744372,763.6393567921922,785.2303962166769,1131.4832832638822,927.6755194991018
1533222974.179,1018.1147086031452,787.7567098803539,1071.9999279824276,1160.6310689020254,989.8966690686425
1533222974.1829998,1064.4921369102683,811.8740629685158,1177.8455943250153,1168.5814516910552,1046.4645099452143
1533222974.187,1075.0299105766267,827.9413234559191,1103.9999759941425,1144.7303033239655,820.1989387634077
1533222974.191,1024.4390995991366,852.0586765440809,818.4613445680747,1118.236263203799,435.55383931126505
1533222974.195,999.145852605612,852.0586765440809,633.8464585358828,1120.8845818393256,509.0873985912239
1533222974.199,1045.5189639222942,779.7066172795955,1062.5635855148657,1150.0323674774688,882.4200883329484
1533222974.2029998,1096.109774899784,747.555633947732,1397.3331892981887,1136.7853474173853,741.0062784659993
1533222974.206,1117.1896392229417,827.9413234559191,1257.4356943094115,1150.0323674774688,492.12168018783683
1533222974.21,1081.354301572618,860.0923067877827,959.1797198516438,1142.0819846884388,789.0883639786374
1533222974.214,1016.0080172679618,860.0923067877827,798.7694597481785,1155.329004748522,791.9150183251218
1533222974.218,1032.8701819303114,844.0250463003792,998.1534694465449,1200.3775559647252,622.2230803443675
1533222974.2220001,1070.8122109158187,803.8239703677573,1234.4611285153578,1179.180153115612,794.7474649960867
1533222974.226,1083.4609929078015,779.7066172795955,1205.3329012278996,1179.180153115612,803.2332203600206
1533222974.23,1064.4921369102683,811.8740629685158,878.3587195275647,1184.4822172691152,769.2901989042853
1533222974.234,1016.0080172679618,908.3270129641062,681.435670303554,1189.7788545401686,783.4350552856685
1533222974.238,1018.1147086031452,940.4779962959697,1008.8207122537899,1163.279387537552,837.1704494912753
1533222974.242,1070.8122109158187,916.3606432078078,1306.6666666666667,1179.180153115612,879.5934339864639
1533222974.246,1068.7055195806352,892.2432901196461,1277.1284193343176,1203.0313014827018,933.3346205165512
1533222974.2489998,1011.7946345975948,884.2096598759443,963.6924609604744,1147.384048841942,777.7759542682192
1533222974.2529998,1003.359235275979,892.2432901196461,726.9739416417606,1139.433666052912,690.097538606877
1533222974.2570002,1053.950046253469,916.3606432078078,918.9742297120497,1165.9331330555287,927.6755194991018
1533222974.2610002,1131.945112550108,932.444366052268,1111.7945578721208,1155.329004748522,576.967649178214
1533222974.265,1146.700585877274,948.5116265396714,1195.8973989653475,1157.9827502664987,571.3143404852451
1533222974.269,1037.0878815911194,884.2096598759443,1004.3071309399494,1160.6310689020254,970.0985039942905
1533222974.2729998,948.5550416281221,835.9749536996209,736.0002640644317,1136.7853474173853,1029.4929992173466
1533222974.2770002,1003.359235275979,876.1760296322428,804.923121241583,1139.433666052912,1032.319653563831
1533222974.2810001,1093.9987665741596,916.3606432078078,980.5125250561136,1118.236263203799,681.6117832429431
1533222974.285,1085.5676842429848,876.1760296322428,1151.1791677169228,1110.2858804147688,749.4920338299332
1533222974.289,1047.6256552574775,811.8740629685158,1087.9999519882851,1099.6871789902123,803.2332203600206
1533222974.292,1028.6567992599446,900.2933827204045,631.384657856517,1075.8360306231225,520.3998083016422
1533222974.296,959.0928152944804,932.444366052268,681.0256502586631,1067.8856478340924,537.3713190295098
1533222974.3,992.8214616096208,852.0586765440809,1150.769147672032,1059.9352650450626,786.2617096321529
1533222974.304,1034.9811902559359,827.9413234559191,1195.0765186705555,1091.7367962011822,695.7566396243263
1533222974.3079998,988.6037619488128,868.142399388541,994.4616086325063,1128.8349646283555,808.8865290529894
1533222974.312,963.3105149552883,892.2432901196461,680.6156302137722,1104.9838162612657,760.8044435403515
1533222974.316,971.7415972864632,844.0250463003792,688.8202321366414,1097.0334334722356,588.2800588886322
1533222974.32,1022.3324082639531,779.7066172795955,958.3588395568519,1099.6871789902123,763.6368902113164
1533222974.324,1106.6475485661424,827.9413234559191,1008.8207122537899,1126.1812191103788,698.5832939708108
1533222974.3279998,1075.0299105766267,892.2432901196461,925.948771500246,1152.6806861129955,582.6267501956634
1533222974.331,999.145852605612,860.0923067877827,615.3846338506596,1131.4832832638822,543.0304200469592
1533222974.335,1005.4702436016034,876.1760296322428,568.2054421278792,1112.9341990502955,593.9391599060816
1533222974.339,1018.1147086031452,892.2432901196461,971.4870428384526,1131.4832832638822,800.4007736890557
1533222974.343,1051.8433549182855,868.142399388541,1124.1027210639395,1155.329004748522,876.7667796399794
1533222974.3470001,1056.0567375886526,860.0923067877827,1000.2052500810198,1147.384048841942,741.0062784659993
1533222974.351,1041.3012642614863,876.1760296322428,691.2820328160071,1136.7853474173853,670.2993735325249
1533222974.355,1058.1677459142768,900.2933827204045,641.641040413861,1147.384048841942,506.2607442447395
1533222974.359,1093.9987665741596,876.1760296322428,929.6406323142846,1168.5814516910552,811.7131833994739
1533222974.363,1039.1945729263027,707.3710203721669,1118.3590796154263,1115.5825176858223,1021.0072438534128
1533222974.367,1009.6836262719704,683.253667284005,1018.666234561233,1112.9341990502955,630.7030433838208
1533222974.371,1020.2257169287697,803.8239703677573,648.2047219521563,1155.329004748522,497.77498888080567
1533222974.3739998,1024.4390995991366,803.8239703677573,554.2563585514865,1136.7853474173853,789.0883639786374
1533222974.3779998,1089.7853839037928,731.4883734603286,980.5125250561136,1152.6806861129955,967.271849647806
1533222974.3820002,1138.2651865556584,723.4547432166271,1188.5128371322603,1155.329004748522,701.4099483172953
1533222974.3860002,1117.1896392229417,747.555633947732,1100.3072749750938,1134.131601899409,610.9048783094687
1533222974.39,1089.7853839037928,763.6393567921922,797.9485794533866,1134.131601899409,562.8285851213112
1533222974.394,1081.354301572618,779.7066172795955,631.7946779014079,1139.433666052912,373.3326897417244
1533222974.3979998,1110.8652482269504,819.9076932122174,855.795013983412,1102.335497625739,506.2607442447395
1533222974.4020002,1127.7274128893,819.9076932122174,1140.102745069797,1104.9838162612657,707.0690493347446
1533222974.4060001,1110.8652482269504,779.7066172795955,1166.7691716778895,1131.4832832638822,791.9150183251218
1533222974.41,1047.6256552574775,771.6729870358938,827.0768067408447,1123.532900474852,760.8044435403515
1533222974.414,1005.4702436016034,763.6393567921922,576.4100440507484,1112.9341990502955,175.35103899820368
1533222974.417,1028.6567992599446,731.4883734603286,765.9485314416718,1123.532900474852,243.2312895851937
1533222974.421,1045.5189639222942,771.6729870358938,1053.5381032972045,1147.384048841942,458.17865873210155
1533222974.425,1047.6256552574775,739.5220037040303,1152.4100680566057,1168.5814516910552,384.64509945214263
1533222974.429,1037.0878815911194,723.4547432166271,905.846026430449,1147.384048841942,557.1694841038619
1533222974.4329998,1047.6256552574775,771.6729870358938,506.25628653391425,1136.7853474173853,497.77498888080567
1533222974.437,1049.736663583102,715.4046506158685,724.5129811674049,1134.131601899409,678.7851288964588
1533222974.441,1104.540857230959,779.7066172795955,1132.7181832367098,1176.5318344800853,882.4200883329484
1533222974.445,1104.540857230959,803.8239703677573,1088.8199920780671,1179.180153115612,752.3244805008982
1533222974.449,1062.3811285846439,699.3373901284654,845.5386314260679,1142.0819846884388,879.5934339864639
1533222974.4529998,1022.3324082639531,723.4547432166271,607.1791917227804,1157.9827502664987,1267.0709801095716
1533222974.456,1024.4390995991366,852.0586765440809,674.4611285153577,1147.384048841942,972.9251583407748
1533222974.46,1096.109774899784,860.0923067877827,917.333309327476,1142.0819846884388,678.7851288964588
1533222974.464,1091.8920752389763,731.4883734603286,952.6151981083384,1155.329004748522,1063.4302283486013
1533222974.468,1037.0878815911194,803.8239703677573,766.7694117364637,1157.9827502664987,760.8044435403515
1533222974.4720001,999.145852605612,852.0586765440809,470.97439775305173,1144.7303033239655,599.5924685990504
1533222974.476,1030.763490595128,844.0250463003792,525.1281312640284,1139.433666052912,658.9869638221066
1533222974.48,1053.950046253469,860.0923067877827,954.6661385378032,1165.9331330555287,593.9391599060816
1533222974.484,1022.3324082639531,860.0923067877827,1014.9743737471944,1147.384048841942,622.2230803443675
1533222974.488,1003.359235275979,900.2933827204045,817.6413044782927,1126.1812191103788,808.8865290529894
1533222974.492,982.2836879432624,964.5953493841315,518.9744697706241,1104.9838162612657,817.3722844169232
1533222974.496,948.5550416281221,964.5953493841315,501.7435454250837,1070.5339664696191,523.2322549726072
1533222974.4989998,990.7147702744372,948.5116265396714,801.2304202225343,1083.7864134121523,786.2617096321529
1533222974.5029998,1024.4390995991366,972.6289796278331,935.7951340126991,1107.6321348967924,1026.6663448708623
1533222974.5070002,1009.6836262719704,1012.8300555604553,756.9230492240107,1110.2858804147688,709.8957036812291
1533222974.5110002,963.3105149552883,996.746332715995,450.8716526832547,1073.1877119875958,868.2810242760456
1533222974.515,946.4483502929386,900.2933827204045,410.2561424987697,1054.6386277740091,766.4635445578009
1533222974.519,1026.550107924761,900.2933827204045,743.7948459424099,1070.5339664696191,424.2414296008468
1533222974.5229998,1064.4921369102683,964.5953493841315,946.871556659825,1086.434732047679,636.3621444012701
1533222974.5270002,1039.1945729263027,948.5116265396714,821.3331652923313,1091.7367962011822,777.7759542682192
1533222974.5310001,1045.5189639222942,900.2933827204045,470.97439775305173,1107.6321348967924,885.2525350039133
1533222974.535,1041.3012642614863,876.1760296322428,364.30785111567224,1123.532900474852,616.5639793269181
1533222974.539,1051.8433549182855,892.2432901196461,657.2310443748274,1134.131601899409,248.8845982781626
1533222974.542,1060.2744372494603,852.0586765440809,868.1023369702208,1163.279387537552,528.885563665576
1533222974.546,1039.1945729263027,835.9749536996209,809.8458823953044,1203.0313014827018,774.9492999217347
1533222974.55,1011.7946345975948,860.0923067877827,470.15351745825984,1205.6796201182285,876.7667796399794
1533222974.554,1003.359235275979,916.3606432078078,357.7433293723669,1152.6806861129955,1145.4553353169747
1533222974.5579998,1028.6567992599446,924.4107358085663,554.6663785963775,1165.9331330555287,913.5364554421991
1533222974.562,1051.8433549182855,868.142399388541,723.282080827722,1189.7788545401686,540.1979733759943
1533222974.566,1041.3012642614863,884.2096598759443,774.153973569551,1152.6806861129955,548.683728739928
1533222974.57,982.2836879432624,916.3606432078078,524.3072509692365,1115.5825176858223,800.4007736890557
1533222974.574,952.77274128893,884.2096598759443,322.87146063639517,1083.7864134121523,608.0782239629843
1533222974.5779998,978.0659882824546,860.0923067877827,591.179167716923,1057.2869464095359,783.4350552856685
1533222974.581,1028.6567992599446,956.5617191404298,808.6149820556216,1070.5339664696191,913.5364554421991
1533222974.585,1037.0878815911194,980.6626098715349,760.6149100380493,1078.484349258649,766.4635445578009
1533222974.589,999.145852605612,908.3270129641062,524.7181112191374,1086.434732047679,814.5456300704388
1533222974.593,952.77274128893,892.2432901196461,194.87210879454588,1054.6386277740091,910.7040087712342
1533222974.5970001,986.4970706136294,924.4107358085663,443.8971108950584,1051.9848822560325,1029.4929992173466
1533222974.601,1066.5988282454518,972.6289796278331,878.7687395724557,1081.1380947766256,919.189764135168
1533222974.605,1058.1677459142768,940.4779962959697,781.9485554475292,1104.9838162612657,763.6368902113164
1533222974.609,1011.7946345975948,924.4107358085663,521.0254102000888,1134.131601899409,690.097538606877
1533222974.613,967.5282146160962,940.4779962959697,247.79494196583966,1104.9838162612657,486.4625791703874
1533222974.617,994.9281529448042,924.4107358085663,489.02536218837395,1070.5339664696191,613.7373249804336
1533222974.621,1045.5189639222942,876.1760296322428,852.1023129643633,1091.7367962011822,678.7851288964588
1533222974.6239998,1037.0878815911194,868.142399388541,853.7432333489371,1120.8845818393256,774.9492999217347
1533222974.6279998,1001.2525439407956,844.0250463003792,685.9484114123846,1144.7303033239655,953.1269932664228
1533222974.6320002,961.2038236201048,819.9076932122174,420.1025050112227,1155.329004748522,938.9879292095201
1533222974.6360002,978.0659882824546,795.7903401240557,511.9999279824277,1155.329004748522,890.9058436968821
1533222974.64,1030.763490595128,827.9413234559191,791.3848979150913,1160.6310689020254,1083.2283934229536
1533222974.644,1037.0878815911194,860.0923067877827,842.6668107018112,1173.8780889621087,981.4109137047087
1533222974.6479998,992.8214616096208,803.8239703677573,640.8201601190691,1165.9331330555287,596.7658142525661
1533222974.6520002,967.5282146160962,811.8740629685158,271.99956789456627,1157.9827502664987,613.7373249804336
1533222974.6560001,1003.359235275979,811.8740629685158,359.3842497569407,1136.7853474173853,695.7566396243263
1533222974.66,1051.8433549182855,779.7066172795955,828.7177271254186,1152.6806861129955,658.9869638221066
1533222974.6629999,1043.4122725871107,779.7066172795955,900.9232652767275,1134.131601899409,475.15016945996916
1533222974.667,997.0391612704286,811.8740629685158,715.0766386998428,1107.6321348967924,492.12168018783683
1533222974.671,963.3105149552883,779.7066172795955,433.64072833771445,1099.6871789902123,769.2901989042853
1533222974.675,942.2306506321307,739.5220037040303,462.3589355802816,1044.0399263494526,1035.152100234796
1533222974.679,965.4172062904718,731.4883734603286,699.0766146939853,1059.9352650450626,806.059874706505
1533222974.6829998,1018.1147086031452,747.555633947732,880.8205202069305,1115.5825176858223,839.9971038377597
1533222974.687,992.8214616096208,787.7567098803539,750.7693877306062,1118.236263203799,786.2617096321529
1533222974.691,980.172679617638,779.7066172795955,408.6152221141959,1094.385114836709,446.8662490216833
1533222974.695,1030.763490595128,844.0250463003792,447.999831958998,1078.484349258649,797.5741193425712
1533222974.699,1020.2257169287697,835.9749536996209,643.2819607984349,1073.1877119875958,701.4099483172953
1533222974.7029998,1032.8701819303114,723.4547432166271,827.0768067408447,1089.0830506832058,907.8773544247498
1533222974.706,1007.5769349367869,731.4883734603286,859.8977350473516,1102.335497625739,1227.4746499608673
1533222974.71,965.4172062904718,803.8239703677573,474.6662585670904,1067.8856478340924,1052.117818638183
1533222974.714,961.2038236201048,852.0586765440809,272.4104281444671,1030.7874794069194,967.271849647806
1533222974.718,1005.4702436016034,803.8239703677573,686.3592716622856,1059.9352650450626,936.1612748630357
1533222974.7220001,1026.550107924761,835.9749536996209,910.7687875841706,1099.6871789902123,472.32351511348475
1533222974.726,1011.7946345975948,884.2096598759443,791.3848979150913,1112.9341990502955,308.2790935012188
1533222974.73,997.0391612704286,876.1760296322428,509.53812730306197,1102.335497625739,619.3906336734026
1533222974.734,965.4172062904718,884.2096598759443,325.743281360652,1094.385114836709,545.8570743934437
1533222974.738,994.9281529448042,892.2432901196461,613.7437134660858,1067.8856478340924,605.2515696164999
1533222974.742,1062.3811285846439,892.2432901196461,842.6668107018112,1078.484349258649,568.4818938142802
1533222974.746,1062.3811285846439,892.2432901196461,717.9484594240995,1115.5825176858223,509.0873985912239
1533222974.7489998,999.145852605612,932.444366052268,479.1789996759209,1075.8360306231225,989.8966690686425
1533222974.7529998,982.2836879432624,956.5617191404298,355.2823688980111,1070.5339664696191,789.0883639786374
1533222974.7570002,1011.7946345975948,900.2933827204045,619.4873549145991,1078.484349258649,837.1704494912753
1533222974.7610002,1037.0878815911194,835.9749536996209,833.2304682342492,1078.484349258649,1032.319653563831
1533222974.765,1026.550107924761,827.9413234559191,740.1021449233613,1083.7864134121523,596.7658142525661
1533222974.769,967.5282146160962,844.0250463003792,427.48706684431,1054.6386277740091,435.55383931126505
1533222974.7729998,994.9281529448042,868.142399388541,265.02586631137996,1030.7874794069194,664.6460648395561
1533222974.7770002,1028.6567992599446,844.0250463003792,517.3335493860502,1049.3365636205058,808.8865290529894
1533222974.7810001,1020.2257169287697,771.6729870358938,752.8203281600711,1075.8360306231225,763.6368902113164
1533222974.785,1045.5189639222942,755.6057265484905,732.3075630453831,1062.589010563039,704.2423949882602
1533222974.7879999,1018.1147086031452,803.8239703677573,524.3072509692365,1057.2869464095359,825.8580397808571
1533222974.792,1013.9013259327783,811.8740629685158,133.3329732454719,1078.484349258649,565.6552394677957
1533222974.796,1060.2744372494603,852.0586765440809,201.84581037773208,1070.5339664696191,526.0589093190915
1533222974.8,1100.3231575701511,844.0250463003792,773.333093274759,1081.1380947766256,772.1168532507697
1533222974.804,1125.6207215541165,868.142399388541,866.4614165856469,1115.5825176858223,865.4543699295612
1533222974.8079998,1051.8433549182855,819.9076932122174,549.743617442656,1134.131601899409,975.7576050117398
1533222974.812,984.3903792784458,803.8239703677573,253.12856336946214,1104.9838162612657,743.8387251369643
1533222974.816,1020.2257169287697,827.9413234559191,334.76960378332313,1091.7367962011822,619.3906336734026
1533222974.82,1079.2476102374344,852.0586765440809,605.1282512933155,1102.335497625739,610.9048783094687
1533222974.824,1079.2476102374344,884.2096598759443,691.2820328160071,1120.8845818393256,721.2081133916473
1533222974.8279998,1032.8701819303114,852.0586765440809,489.02536218837395,1115.5825176858223,743.8387251369643
1533222974.831,997.0391612704286,908.3270129641062,219.89761501806433,1073.1877119875958,684.4442299139081
1533222974.835,978.0659882824546,932.444366052268,281.43591036212837,1057.2869464095359,752.3244805008982
1533222974.839,990.7147702744372,892.2432901196461,479.5898599258219,1036.0895435604225,656.1603094756223
1533222974.843,1013.9013259327783,852.0586765440809,603.4873309087417,1041.386180831476,774.9492999217347
1533222974.8470001,978.0659882824546,827.9413234559191,553.4354782566946,1065.2373291985657,1105.8590051682704
1533222974.851,954.8794326241135,819.9076932122174,196.10216892921872,1046.688244984979,916.3631097886836
1533222974.855,975.959296947271,852.0586765440809,114.87198876525862,1044.0399263494526,489.2892335168719
1533222974.859,1013.9013259327783,844.0250463003792,564.5127411088306,1078.484349258649,825.8580397808571
1533222974.863,1062.3811285846439,835.9749536996209,716.3075390395256,1097.0334334722356,967.271849647806
1533222974.867,1053.950046253469,827.9413234559191,502.9744457647666,1107.6321348967924,941.8145835560045
1533222974.871,997.0391612704286,755.6057265484905,178.87208478868854,1112.9341990502955,1009.6948341429945
1533222974.8739998,999.145852605612,707.3710203721669,70.56377756172496,1091.7367962011822,574.1409948317295
1533222974.8779998,1053.950046253469,707.3710203721669,363.07695077598936,1104.9838162612657,480.80347815293806
1533222974.8820002,1081.354301572618,683.253667284005,538.2563345456291,1136.7853474173853,585.4534045421478
1533222974.8860002,1045.5189639222942,691.2872975277068,357.3333093274759,1147.384048841942,568.4818938142802
1533222974.89,1020.2257169287697,819.9076932122174,102.56382557343991,1136.7853474173853,741.0062784659993
1533222974.894,1034.9811902559359,924.4107358085663,34.87186873597148,1112.9341990502955,828.6846941273415
1533222974.8979998,1058.1677459142768,884.2096598759443,353.2305882635363,1118.236263203799,876.7667796399794
1533222974.9020002,1070.8122109158187,827.9413234559191,619.0764946646982,1157.9827502664987,1083.2283934229536
1533222974.9060001,1051.8433549182855,835.9749536996209,433.64072833771445,1131.4832832638822,1114.3447605322042
1533222974.91,1005.4702436016034,852.0586765440809,135.38475387994671,1118.236263203799,862.6219232585962
1533222974.9129999,986.4970706136294,868.142399388541,37.743689460228296,1123.532900474852,786.2617096321529
1533222974.917,1058.1677459142768,884.2096598759443,224.000336082004,1134.131601899409,695.7566396243263
1533222974.921,1091.8920752389763,860.0923067877827,443.8971108950584,1136.7853474173853,743.8387251369643
1533222974.925,1077.13660191181,827.9413234559191,377.02519414737196,1123.532900474852,735.3529697730305
1533222974.929,1030.763490595128,795.7903401240557,132.92295320058093,1118.236263203799,537.3713190295098
1533222974.9329998,992.8214616096208,827.9413234559191,0.0,1099.6871789902123,398.78416350904536
1533222974.937,1022.3324082639531,835.9749536996209,121.43567030355418,1102.335497625739,390.30420046959205
1533222974.941,1064.4921369102683,868.142399388541,479.99987997071287,1134.131601899409,862.6219232585962
1533222974.945,1068.7055195806352,924.4107358085663,480.82076026550476,1142.0819846884388,893.7382903678471
1533222974.949,1007.5769349367869,868.142399388541,160.8202801483563,1126.1812191103788,585.4534045421478
1533222974.9529998,973.8482886216466,908.3270129641062,9.846362512452941,1091.7367962011822,591.1067132351167
1533222974.956,1045.5189639222942,940.4779962959697,207.5894518262456,1083.7864134121523,755.1511348473827
1533222974.96,1072.9232192414431,876.1760296322428,437.33342935676313,1104.9838162612657,839.9971038377597
1533222974.964,1049.736663583102,932.444366052268,452.9225931127195,1115.5825176858223,823.0313854343726
1533222974.968,1034.9811902559359,940.4779962959697,265.02586631137996,1115.5825176858223,774.9492999217347
1533222974.9720001,1013.9013259327783,884.2096598759443,19.2818647750051,1112.9341990502955,667.4727191860405
1533222974.976,1043.4122725871107,860.0923067877827,182.97396564761803,1131.4832832638822,675.9584745499743
1533222974.98,1079.2476102374344,844.0250463003792,469.33347736847793,1181.8284717511387,684.4442299139081
1533222974.984,1077.13660191181,876.1760296322428,536.2053941161644,1197.7292373291987,808.8865290529894
1533222974.988,1037.0878815911194,892.2432901196461,411.0770227935617,1165.9331330555287,871.1076786225301
1533222974.992,1007.5769349367869,900.2933827204045,107.48742693217145,1120.8845818393256,557.1694841038619
1533222974.996,1032.8701819303114,884.2096598759443,198.5639696085845,1099.6871789902123,576.967649178214
1533222974.9989998,1064.4921369102683,844.0250463003792,553.4354782566946,1131.4832832638822,658.9869638221066
1533222975.0029998,1085.5676842429848,852.0586765440809,649.0256022469482,1157.9827502664987,823.0313854343726
1533222975.0070002,1068.7055195806352,900.2933827204045,453.3334533626205,1126.1812191103788,834.3437951447909
1533222975.0110002,1032.8701819303114,908.3270129641062,133.74383349537288,1073.1877119875958,690.097538606877
1533222975.015,1034.9811902559359,924.4107358085663,150.15387754612127,1067.8856478340924,429.89473829381564
1533222975.019,1106.6475485661424,924.4107358085663,550.1536374875469,1115.5825176858223,418.5823285833974
1533222975.0229998,1108.754239901326,827.9413234559191,740.5130051732623,1128.8349646283555,520.3998083016422
1533222975.0270002,1034.9811902559359,803.8239703677573,565.3336214036225,1104.9838162612657,704.2423949882602
1533222975.0310001,1003.359235275979,900.2933827204045,209.6412324607204,1083.7864134121523,718.3814590451628
1533222975.035,1001.2525439407956,892.2432901196461,204.7176311019888,1081.1380947766256,605.2515696164999
1533222975.0379999,1026.550107924761,868.142399388541,682.6665706432369,1102.335497625739,670.2993735325249
1533222975.042,1066.5988282454518,916.3606432078078,885.3332613157611,1134.131601899409,797.5741193425712
1533222975.046,1020.2257169287697,908.3270129641062,689.6411124314333,1134.131601899409,854.1419602191429
1533222975.05,965.4172062904718,972.6289796278331,324.10236097607816,1110.2858804147688,497.77498888080567
1533222975.054,986.4970706136294,972.6289796278331,309.7432573547944,1094.385114836709,608.0782239629843
1533222975.0579998,1047.6256552574775,916.3606432078078,672.820208130784,1110.2858804147688,938.9879292095201
1533222975.062,1091.8920752389763,932.444366052268,841.4359103621283,1136.7853474173853,995.5557700860919
1533222975.066,1058.1677459142768,948.5116265396714,710.5638975910122,1157.9827502664987,803.2332203600206
1533222975.07,992.8214616096208,892.2432901196461,406.56428168473104,1139.433666052912,571.3143404852451
1533222975.074,984.3903792784458,827.9413234559191,306.4614165856469,1094.385114836709,746.6653794834488
1533222975.0779998,1022.3324082639531,868.142399388541,592.0000480117149,1112.9341990502955,856.9686145656274
1533222975.081,1089.7853839037928,844.0250463003792,852.9231932591553,1128.8349646283555,905.0507000782653
1533222975.085,1079.2476102374344,819.9076932122174,841.8459304070193,1123.532900474852,825.8580397808571
1533222975.089,1003.359235275979,860.0923067877827,604.7182312484247,1112.9341990502955,854.1419602191429
1533222975.093,1030.763490595128,924.4107358085663,312.20505803416034,1102.335497625739,924.8488651526173
1533222975.0970001,1091.8920752389763,908.3270129641062,622.3591756388558,1099.6871789902123,1012.521488489479
1533222975.101,1110.8652482269504,868.142399388541,1007.589811914107,1110.2858804147688,873.940125293495
1533222975.105,1106.6475485661424,844.0250463003792,898.8714846422527,1120.8845818393256,752.3244805008982
1533222975.109,1034.9811902559359,844.0250463003792,639.5892597793862,1110.2858804147688,1105.8590051682704
1533222975.113,999.145852605612,876.1760296322428,441.02529017080167,1097.0334334722356,950.3003389199383
1533222975.117,1051.8433549182855,916.3606432078078,649.4356222918392,1094.385114836709,670.2993735325249
1533222975.121,1093.9987665741596,884.2096598759443,866.4614165856469,1110.2858804147688,715.5548046986785
1533222975.1239998,1087.6786925686092,819.9076932122174,871.7950379892694,1104.9838162612657,899.3915990608159
1533222975.1279998,1062.3811285846439,884.2096598759443,713.8457383601599,1112.9341990502955,780.6026086147035
1533222975.1320002,1020.2257169287697,940.4779962959697,412.3079231332445,1104.9838162612657,899.3915990608159
1533222975.1360002,1032.8701819303114,860.0923067877827,566.5636815382953,1123.532900474852,803.2332203600206
1533222975.14,1075.0299105766267,819.9076932122174,1027.2816967340032,1152.6806861129955,557.1694841038619
1533222975.144,1089.7853839037928,876.1760296322428,1012.5125730678285,1157.9827502664987,593.9391599060816
1533222975.1479998,1066.5988282454518,892.2432901196461,728.2048419814435,1163.279387537552,568.4818938142802
1533222975.1520002,990.7147702744372,892.2432901196461,531.6918128023237,1112.9341990502955,862.6219232585962
1533222975.1560001,1011.7946345975948,908.3270129641062,636.7174390551295,1102.335497625739,681.6117832429431
1533222975.16,1079.2476102374344,868.142399388541,958.3588395568519,1126.1812191103788,851.309513548178
1533222975.1629999,1066.5988282454518,835.9749536996209,1000.2052500810198,1142.0819846884388,1012.521488489479
1533222975.167,1045.5189639222942,860.0923067877827,663.7947259131228,1147.384048841942,670.2993735325249
1533222975.171,1024.4390995991366,835.9749536996209,441.43615042070263,1104.9838162612657,831.5113484738259
1533222975.175,1007.5769349367869,892.2432901196461,662.153805528549,1091.7367962011822,989.8966690686425
1533222975.179,1037.0878815911194,892.2432901196461,957.127939217169,1102.335497625739,625.0497346908519
1533222975.1829998,1047.6256552574775,827.9413234559191,1017.4361744265601,1110.2858804147688,608.0782239629843
1533222975.187,1039.1945729263027,892.2432901196461,811.8976630297792,1104.9838162612657,944.6470302269695
1533222975.191,990.7147702744372,900.2933827204045,464.82073625964733,1081.1380947766256,741.0062784659993
1533222975.195,984.3903792784458,779.7066172795955,564.1027210639396,1044.0399263494526,571.3143404852451
1533222975.199,1032.8701819303114,763.6393567921922,957.53795926206,1054.6386277740091,678.7851288964588
1533222975.2029998,1032.8701819303114,819.9076932122174,1022.3589355802816,1107.6321348967924,630.7030433838208
1533222975.206,984.3903792784458,755.6057265484905,858.6668347076687,1107.6321348967924,627.8763890373364
1533222975.21,931.6928769657725,771.6729870358938,543.5899559492516,1083.7864134121523,749.4920338299332
1533222975.214,954.8794326241135,819.9076932122174,405.33338134504817,1083.7864134121523,466.6644140960354
1533222975.218,1018.1147086031452,819.9076932122174,881.6405602967124,1115.5825176858223,644.847899765204
1533222975.2220001,1043.4122725871107,803.8239703677573,1149.94826737724,1147.384048841942,811.7131833994739
1533222975.226,1037.0878815911194,795.7903401240557,950.1533974289727,1155.329004748522,684.4442299139081
1533222975.23,1005.4702436016034,811.8740629685158,617.4355742801243,1155.329004748522,774.9492999217347
1533222975.234,984.3903792784458,827.9413234559191,532.5126930971157,1160.6310689020254,721.2081133916473
1533222975.238,971.7415972864632,787.7567098803539,868.5123570151117,1134.131601899409,509.0873985912239
1533222975.242,980.172679617638,771.6729870358938,1035.8971589067733,1139.433666052912,492.12168018783683
1533222975.246,971.7415972864632,771.6729870358938,885.3332613157611,1150.0323674774688,684.4442299139081
1533222975.2489998,916.9374036386063,860.0923067877827,659.2819848042923,1115.5825176858223,1086.0608400939184
1533222975.2529998,933.7995683009559,835.9749536996209,516.5126690912583,1131.4832832638822,871.1076786225301
1533222975.2570002,997.0391612704286,723.4547432166271,817.6413044782927,1123.532900474852,633.5354900547858
1533222975.2610002,1022.3324082639531,739.5220037040303,1047.3844418038002,1147.384048841942,933.3346205165512
1533222975.265,931.6928769657725,779.7066172795955,914.8715086481102,1144.7303033239655,899.3915990608159
1533222975.269,874.777674992291,795.7903401240557,700.3075150336682,1102.335497625739,579.7943035246984
1533222975.2729998,889.5331483194573,827.9413234559191,432.8206882479324,1104.9838162612657,647.6745541116884
1533222975.2770002,944.3416589577552,844.0250463003792,676.9229291947236,1118.236263203799,721.2081133916473
1533222975.2810001,997.0391612704286,819.9076932122174,1100.3072749750938,1120.8845818393256,721.2081133916473
1533222975.285,963.3105149552883,803.8239703677573,1003.4870908501674,1126.1812191103788,930.5021738455863
1533222975.2879999,929.586185630589,819.9076932122174,665.0256262528056,1120.8845818393256,825.8580397808571
1533222975.292,938.0172679617638,811.8740629685158,477.12805924645613,1115.5825176858223,692.929985277842
1533222975.296,982.2836879432624,827.9413234559191,722.872060782831,1136.7853474173853,958.7860942838722
1533222975.3,990.7147702744372,827.9413234559191,931.6924129487595,1171.229770326582,797.5741193425712
1533222975.304,969.6349059512797,803.8239703677573,873.4359583738432,1181.8284717511387,398.78416350904536
1533222975.3079998,982.2836879432624,803.8239703677573,693.7438334953729,1160.6310689020254,854.1419602191429
1533222975.312,965.4172062904718,876.1760296322428,393.84609844802134,1144.7303033239655,910.7040087712342
1533222975.316,971.7415972864632,940.4779962959697,553.0254582118037,1150.0323674774688,627.8763890373364
1533222975.32,1026.550107924761,924.4107358085663,1053.5381032972045,1155.329004748522,823.0313854343726
1533222975.324,1049.736663583102,876.1760296322428,1040.4099000156039,1189.7788545401686,839.9971038377597
1533222975.3279998,1011.7946345975948,827.9413234559191,739.6921248784704,1200.3775559647252,724.0405600626123
1533222975.331,952.77274128893,819.9076932122174,518.9744697706241,1155.329004748522,854.1419602191429
1533222975.335,982.2836879432624,868.142399388541,634.6664986256646,1171.229770326582,876.7667796399794
1533222975.339,1043.4122725871107,900.2933827204045,921.4360303914156,1203.0313014827018,704.2423949882602
1533222975.343,1060.2744372494603,956.5617191404298,1000.2052500810198,1208.3279387537552,970.0985039942905
1533222975.3470001,1030.763490595128,988.7127024722932,754.461248544645,1197.7292373291987,721.2081133916473
1533222975.351,999.145852605612,1012.8300555604553,480.82076026550476,1179.180153115612,395.9575091625609
1533222975.355,1009.6836262719704,980.6626098715349,589.5382473323491,1189.7788545401686,808.8865290529894
1533222975.359,1064.4921369102683,908.3270129641062,896.4105241678969,1192.4271731756953,803.2332203600206
1533222975.363,1091.8920752389763,948.5116265396714,1010.4616326383638,1155.329004748522,704.2423949882602
1533222975.367,1058.1677459142768,948.5116265396714,920.2051300517326,1131.4832832638822,627.8763890373364
1533222975.37,1001.2525439407956,876.1760296322428,625.2309963631126,1118.236263203799,644.847899765204
1533222975.3739998,988.6037619488128,811.8740629685158,537.0254342059462,1107.6321348967924,562.8285851213112
1533222975.3779998,1034.9811902559359,819.9076932122174,1035.0771188169913,1136.7853474173853,757.977789193867
1533222975.3820002,1041.3012642614863,860.0923067877827,1219.2819848042923,1144.7303033239655,859.7952689121119
1533222975.3860002,994.9281529448042,868.142399388541,964.1024810053653,1144.7303033239655,548.683728739928
1533222975.39,961.2038236201048,852.0586765440809,687.1793117520675,1152.6806861129955,653.3336551291378
1533222975.394,992.8214616096208,892.2432901196461,706.4611765270726,1142.0819846884388,859.7952689121119
1533222975.3979998,1058.1677459142768,900.2933827204045,1030.9743977530518,1150.0323674774688,797.5741193425712
1533222975.4020002,1064.4921369102683,868.142399388541,1142.5637055441528,1150.0323674774688,1122.8247235716576
1533222975.4060001,1034.9811902559359,860.0923067877827,1005.1280112347413,1136.7853474173853,1377.37421519175
1533222975.41,980.172679617638,844.0250463003792,766.7694117364637,1104.9838162612657,961.6127486303566
1533222975.4129999,1001.2525439407956,852.0586765440809,608.4100920624633,1091.7367962011822,509.0873985912239
1533222975.417,1079.2476102374344,844.0250463003792,999.3843697862278,1115.5825176858223,585.4534045421478
1533222975.421,1083.4609929078015,827.9413234559191,1342.3585754924202,1120.8845818393256,905.0507000782653
1533222975.425,992.8214616096208,819.9076932122174,1145.0255062235185,1081.1380947766256,896.5649447143315
1533222975.429,935.9062596361393,795.7903401240557,831.5895478496753,1094.385114836709,786.2617096321529
1533222975.4329998,950.6617329633056,819.9076932122174,717.9484594240995,1123.532900474852,724.0405600626123
1533222975.437,975.959296947271,803.8239703677573,973.9488435178183,1073.1877119875958,619.3906336734026
1533222975.441,1007.5769349367869,739.5220037040303,1179.0764946646982,1104.9838162612657,591.1067132351167
1533222975.445,1024.4390995991366,739.5220037040303,1081.4354302449797,1160.6310689020254,724.0405600626123
1533222975.449,1018.1147086031452,835.9749536996209,751.1794077754972,1128.8349646283555,837.1704494912753
1533222975.4529998,994.9281529448042,908.3270129641062,653.1283233108878,1104.9838162612657,732.526315426546
1533222975.456,1020.2257169287697,835.9749536996209,967.384321774513,1089.0830506832058,574.1409948317295
1533222975.46,1051.8433549182855,803.8239703677573,1206.5638015675825,1097.0334334722356,772.1168532507697
1533222975.464,1028.6567992599446,860.0923067877827,1124.9227611537215,1126.1812191103788,941.8145835560045
1533222975.468,994.9281529448042,819.9076932122174,799.1794797930695,1123.532900474852,574.1409948317295
1533222975.4720001,990.7147702744372,835.9749536996209,531.6918128023237,1112.9341990502955,650.5012084581729
1533222975.476,1018.1147086031452,900.2933827204045,791.3848979150913,1110.2858804147688,724.0405600626123
1533222975.48,1030.763490595128,932.444366052268,1208.2047219521564,1120.8845818393256,585.4534045421478
1533222975.484,1030.763490595128,996.746332715995,1185.2309963631126,1136.7853474173853,1012.521488489479
1533222975.488,1016.0080172679618,1004.7799629596966,865.230516245964,1144.7303033239655,757.977789193867
1533222975.492,992.8214616096208,972.6289796278331,666.6665466373795,1136.7853474173853,675.9584745499743
1533222975.495,1009.6836262719704,932.444366052268,809.4358623504135,1115.5825176858223,1088.8874944404029
1533222975.4989998,1024.4390995991366,932.444366052268,1020.7180151957077,1150.0323674774688,675.9584745499743
1533222975.5029998,1022.3324082639531,956.5617191404298,1106.8717967183993,1176.5318344800853,786.2617096321529
1533222975.5070002,986.4970706136294,924.4107358085663,953.4360784031304,1134.131601899409,715.5548046986785
1533222975.5110002,971.7415972864632,884.2096598759443,611.6919328316109,1126.1812191103788,398.78416350904536
1533222975.515,992.8214616096208,884.2096598759443,692.51293315569,1147.384048841942,783.4350552856685
1533222975.519,1026.550107924761,900.2933827204045,1146.2564065632014,1155.329004748522,786.2617096321529
1533222975.5229998,1030.763490595128,892.2432901196461,1196.7174390551295,1173.8780889621087,698.5832939708108
1533222975.5270002,1005.4702436016034,876.1760296322428,895.1796238282141,1200.3775559647252,630.7030433838208
1533222975.5310001,975.959296947271,860.0923067877827,649.4356222918392,1181.8284717511387,616.5639793269181
1533222975.535,1003.359235275979,868.142399388541,783.1794557872121,1179.180153115612,724.0405600626123
1533222975.5379999,1037.0878815911194,892.2432901196461,1060.1026250405098,1218.9266401783118,633.5354900547858
1533222975.542,1026.550107924761,948.5116265396714,1038.358959586139,1218.9266401783118,531.7180103365409
1533222975.546,1030.763490595128,1004.7799629596966,917.7433293723668,1173.8780889621087,743.8387251369643
1533222975.55,1007.5769349367869,972.6289796278331,701.1283953284601,1150.0323674774688,890.9058436968821
1533222975.554,986.4970706136294,924.4107358085663,560.0,1168.5814516910552,438.38049365774947
1533222975.5579998,1001.2525439407956,964.5953493841315,1009.6407523435719,1136.7853474173853,463.8377597495509
1533222975.562,997.0391612704286,964.5953493841315,1237.3329492396144,1107.6321348967924,828.6846941273415
1533222975.566,990.7147702744372,972.6289796278331,980.1025050112228,1128.8349646283555,789.0883639786374
1533222975.57,990.7147702744372,980.6626098715349,668.7174870668443,1155.329004748522,653.3336551291378
1533222975.574,999.145852605612,1028.8973160478583,673.2310683806849,1142.0819846884388,899.3915990608159
1533222975.5779998,1020.2257169287697,1101.2493753123438,985.8461464597361,1136.7853474173853,916.3631097886836
1533222975.581,1070.8122109158187,1133.4003586442072,1054.3589835919965,1187.1305359046419,735.3529697730305
1533222975.585,1075.0299105766267,1149.4676191316107,871.7950379892694,1205.6796201182285,579.7943035246984
1533222975.589,1011.7946345975948,1141.433988887909,665.4356462976966,1218.9266401783118,605.2515696164999
1533222975.593,1001.2525439407956,1181.635064820531,516.9226891361492,1216.278321542785,362.02028003130613
1533222975.5970001,1043.4122725871107,1157.5177117323692,894.7687635783132,1163.279387537552,251.71704494912754
1533222975.601,1032.8701819303114,1020.8636858041567,1276.3075390395256,1163.279387537552,738.179624119515
1533222975.605,994.9281529448042,1028.8973160478583,1102.3590556095687,1189.7788545401686,1052.117818638183
1533222975.609,963.3105149552883,1028.8973160478583,779.4867547681635,1200.3775559647252,933.3346205165512
1533222975.613,975.959296947271,1004.7799629596966,625.6410164080036,1187.1305359046419,675.9584745499743
1533222975.617,1024.4390995991366,1085.1656524678838,907.8969668599138,1187.1305359046419,625.0497346908519
1533222975.62,1028.6567992599446,1036.93094629156,1172.9228331712939,1171.229770326582,627.8763890373364
1533222975.6239998,967.5282146160962,964.5953493841315,1088.409972033176,1144.7303033239655,879.5934339864639
1533222975.6279998,927.4751773049645,980.6626098715349,828.7177271254186,1126.1812191103788,905.0507000782653
1533222975.6320002,971.7415972864632,1004.7799629596966,684.7175110727018,1083.7864134121523,639.1887987477546
1533222975.6360002,1034.9811902559359,1036.93094629156,901.3332853216185,1075.8360306231225,876.7667796399794
1533222975.64,1037.0878815911194,1004.7799629596966,1156.5127891205454,1097.0334334722356,1142.6228886460096
1533222975.644,1034.9811902559359,972.6289796278331,1106.0509164236073,1099.6871789902123,919.189764135168
1533222975.6479998,1030.763490595128,1020.8636858041567,961.2306602811086,1091.7367962011822,823.0313854343726
1533222975.6520002,1007.5769349367869,1020.8636858041567,684.7175110727018,1065.2373291985657,701.4099483172953
1533222975.6560001,999.145852605612,972.6289796278331,824.204986016588,1049.3365636205058,749.4920338299332
1533222975.66,1045.5189639222942,996.746332715995,1338.2558544284805,1075.8360306231225,1094.5465954578522
1533222975.6629999,1030.763490595128,980.6626098715349,1280.4102601034651,1046.688244984979,1032.319653563831
1533222975.667,990.7147702744372,1028.8973160478583,959.1797198516438,1049.3365636205058,724.0405600626123
1533222975.671,959.0928152944804,1036.93094629156,763.8975910122069,1051.9848822560325,543.0304200469592
1533222975.675,973.8482886216466,996.746332715995,950.9742777237645,1025.490842135866,622.2230803443675
1533222975.679,1058.1677459142768,1028.8973160478583,1258.6665946490943,1073.1877119875958,755.1511348473827
1533222975.6829998,1070.8122109158187,1061.0482993797218,1160.204649934584,1123.532900474852,543.0304200469592
1533222975.687,1030.763490595128,1053.0146691360203,973.5379832679174,1150.0323674774688,639.1887987477546
1533222975.691,1022.3324082639531,1036.93094629156,883.6923409311872,1163.279387537552,1037.9787545812806
1533222975.695,1028.6567992599446,980.6626098715349,919.7951100068417,1128.8349646283555,653.3336551291378
1533222975.699,1051.8433549182855,988.7127024722932,1257.8457143543023,1144.7303033239655,667.4727191860405
1533222975.7029998,1077.13660191181,1012.8300555604553,1371.0767827349873,1168.5814516910552,879.5934339864639
1533222975.706,1039.1945729263027,956.5617191404298,1169.2309723572553,1118.236263203799,1023.8338981998972
1533222975.71,1020.2257169287697,940.4779962959697,839.7949899775546,1099.6871789902123,913.5364554421991
1533222975.714,1024.4390995991366,924.4107358085663,825.02586631138,1102.335497625739,483.635924823903
1533222975.718,1039.1945729263027,908.3270129641062,1347.6921968960426,1110.2858804147688,1128.483824589107
1533222975.7220001,1058.1677459142768,900.2933827204045,1420.7177751371335,1120.8845818393256,1151.1086440099434
1533222975.726,1058.1677459142768,900.2933827204045,1163.0764706588407,1115.5825176858223,944.6470302269695
1533222975.73,1020.2257169287697,932.444366052268,874.2559984636251,1099.6871789902123,967.271849647806
1533222975.734,1018.1147086031452,908.3270129641062,797.1276991585947,1104.9838162612657,574.1409948317295
1533222975.738,1106.6475485661424,932.444366052268,1280.8202801483562,1134.131601899409,692.929985277842
1533222975.742,1129.8341042244836,996.746332715995,1501.5379352562024,1144.7303033239655,910.7040087712342
1533222975.745,1049.736663583102,916.3606432078078,1238.5638495792973,1142.0819846884388,772.1168532507697
1533222975.7489998,1024.4390995991366,908.3270129641062,973.1279632230264,1139.433666052912,777.7759542682192
1533222975.7529998,1083.4609929078015,948.5116265396714,917.333309327476,1139.433666052912,684.4442299139081
1533222975.7570002,1150.9139685476412,900.2933827204045,1266.4611765270727,1160.6310689020254,797.5741193425712
1533222975.7610002,1171.9938328707985,932.444366052268,1437.5386794377828,1181.8284717511387,893.7382903678471
1533222975.765,1134.0518038852913,964.5953493841315,1242.666570643237,1205.6796201182285,862.6219232585962
1533222975.769,1072.9232192414431,932.444366052268,1002.6662105553755,1187.1305359046419,1074.7484303835001
1533222975.7729998,1072.9232192414431,860.0923067877827,912.8205682186453,1155.329004748522,681.6117832429431
1533222975.7770002,1098.2164662349676,835.9749536996209,1145.0255062235185,1173.8780889621087,568.4818938142802
1533222975.7810001,1117.1896392229417,932.444366052268,1380.5122849975394,1197.7292373291987,845.6562048552091
1533222975.785,1093.9987665741596,940.4779962959697,1321.0257702879503,1213.6300029072584,967.271849647806
1533222975.7879999,1083.4609929078015,916.3606432078078,1069.948987552963,1229.5253416028686,882.4200883329484
1533222975.792,1104.540857230959,908.3270129641062,833.2304682342492,1234.8274057563717,786.2617096321529
1533222975.796,1096.109774899784,908.3270129641062,1065.8462664890233,1221.5749588138385,774.9492999217347
1533222975.8,1123.509713228492,884.2096598759443,1478.153349417258,1240.1240430274252,876.7667796399794
1533222975.804,1093.9987665741596,940.4779962959697,1348.5122369858245,1245.4261071809283,978.5842593582242
1533222975.8079998,1037.0878815911194,916.3606432078078,995.2816487222882,1213.6300029072584,902.2182534073004
1533222975.812,1011.7946345975948,892.2432901196461,893.5387034436402,1187.1305359046419,975.7576050117398
1533222975.816,1049.736663583102,924.4107358085663,1152.4100680566057,1197.7292373291987,794.7474649960867
1533222975.82,1100.3231575701511,908.3270129641062,1362.4613205622172,1245.4261071809283,885.2525350039133
1533222975.824,1060.2744372494603,876.1760296322428,1207.7947019072653,1279.8759569725748,995.5557700860919
1533222975.8279998,1011.7946345975948,900.2933827204045,929.6406323142846,1263.975191394515,837.1704494912753
1533222975.831,1026.550107924761,924.4107358085663,807.7949419658397,1221.5749588138385,588.2800588886322
1533222975.835,1043.4122725871107,964.5953493841315,1072.8199680722096,1213.6300029072584,543.0304200469592
1533222975.839,1064.4921369102683,956.5617191404298,1378.8713646129656,1232.179087120845,919.189764135168
1533222975.843,1058.1677459142768,900.2933827204045,1250.8720127711163,1258.6731272410118,888.0791893503977
1533222975.8470001,1026.550107924761,924.4107358085663,1018.666234561233,1245.4261071809283,967.271849647806
1533222975.851,988.6037619488128,900.2933827204045,766.7694117364637,1218.9266401783118,845.6562048552091
1533222975.855,1009.6836262719704,803.8239703677573,881.2305402518215,1216.278321542785,576.967649178214
1533222975.859,1062.3811285846439,876.1760296322428,1232.8202081307838,1237.4757243918984,630.7030433838208
1533222975.863,1043.4122725871107,908.3270129641062,1184.8201361132117,1248.074425816455,582.6267501956634
1533222975.867,1022.3324082639531,900.2933827204045,919.7951100068417,1245.4261071809283,588.2800588886322
1533222975.87,1043.4122725871107,948.5116265396714,697.8457143543025,1232.179087120845,523.2322549726072
1533222975.8739998,1072.9232192414431,835.9749536996209,707.6920768667555,1203.0313014827018,695.7566396243263
1533222975.8779998,1083.4609929078015,763.6393567921922,1112.2045779170116,1221.5749588138385,774.9492999217347
1533222975.8820002,1075.0299105766267,771.6729870358938,1311.5894278203882,1232.179087120845,664.6460648395561
1533222975.8860002,1032.8701819303114,747.555633947732,1031.3844177979427,1184.4822172691152,828.6846941273415
1533222975.89,1005.4702436016034,771.6729870358938,717.5384393792085,1189.7788545401686,757.977789193867
1533222975.894,1041.3012642614863,795.7903401240557,760.2048899931583,1210.976257389282,562.8285851213112
1533222975.8979998,1102.4341658957755,763.6393567921922,1103.9999759941425,1210.976257389282,856.9686145656274
1533222975.9020002,1100.3231575701511,739.5220037040303,1115.0763986412685,1210.976257389282,930.5021738455863
1533222975.9060001,1026.550107924761,763.6393567921922,869.7432573547945,1210.976257389282,647.6745541116884
1533222975.91,1001.2525439407956,787.7567098803539,680.2047699638712,1208.3279387537552,978.5842593582242
1533222975.9129999,1020.2257169287697,739.5220037040303,711.794797930695,1210.976257389282,1139.7962342995252
1533222975.917,1081.354301572618,683.253667284005,950.1533974289727,1226.8770229673419,1083.2283934229536
1533222975.921,1115.0786308973172,723.4547432166271,1003.8971108950584,1263.975191394515,1057.7769196556326
1533222975.925,1068.7055195806352,747.555633947732,872.2050580341603,1282.5242756081016,862.6219232585962
1533222975.929,1049.736663583102,747.555633947732,691.6920528608981,1258.6731272410118,633.5354900547858
1533222975.9329998,1072.9232192414431,739.5220037040303,656.0001440351446,1232.179087120845,559.9961384503463
1533222975.937,1131.945112550108,691.2872975277068,941.5379352562026,1256.024808605485,568.4818938142802
1533222975.941,1184.6426148627813,699.3373901284654,1097.4354542508372,1295.7712956681848,741.0062784659993
1533222975.945,1129.8341042244836,707.3710203721669,914.8715086481102,1269.2772555480183,975.7576050117398
1533222975.949,1081.354301572618,691.2872975277068,670.7692677013191,1253.3764899699584,1037.9787545812806
1533222975.9529998,1093.9987665741596,715.4046506158685,479.1789996759209,1256.024808605485,868.2810242760456
1533222975.956,1117.1896392229417,731.4883734603286,746.6666666666666,1277.2222114545982,639.1887987477546
1533222975.96,1150.9139685476412,755.6057265484905,1096.6154141610552,1319.6224440352748,692.929985277842
1533222975.964,1129.8341042244836,739.5220037040303,833.6413284841501,1319.6224440352748,650.5012084581729
1533222975.968,1093.9987665741596,643.0690537084399,575.1791437110655,1316.9741253997481,494.94833453432125
1533222975.9720001,1123.509713228492,626.9853308639798,500.1026250405099,1285.1725942436283,625.0497346908519
1533222975.976,1136.1584952204748,626.9853308639798,708.9229772064384,1240.1240430274252,692.929985277842
1533222975.98,1106.6475485661424,626.9853308639798,999.3843697862278,1269.2772555480183,449.6929033681677
1533222975.984,1077.13660191181,699.3373901284654,911.1796478340715,1277.2222114545982,517.5731539551577
1533222975.988,1047.6256552574775,707.3710203721669,652.3074430160959,1232.179087120845,472.32351511348475
1533222975.992,1079.2476102374344,707.3710203721669,514.8717487066845,1229.5253416028686,509.0873985912239
1533222975.995,1112.971939562134,723.4547432166271,717.9484594240995,1240.1240430274252,596.7658142525661
1533222975.9989998,1144.5895775516497,715.4046506158685,914.8715086481102,1258.6731272410118,330.9097052465358
1533222976.0029998,1136.1584952204748,667.1864067966017,873.8459784187341,1274.5738928190717,690.097538606877
1533222976.0070002,1115.0786308973172,691.2872975277068,620.7182552542821,1279.8759569725748,933.3346205165512
1533222976.0110002,1134.0518038852913,731.4883734603286,394.25611849291226,1258.6731272410118,684.4442299139081
1533222976.015,1174.100524205982,731.4883734603286,622.3591756388558,1261.3268727589882,760.8044435403515
1533222976.019,1180.4249152019736,723.4547432166271,937.436054397273,1301.0733598216882,664.6460648395561
1533222976.0229998,1146.700585877274,715.4046506158685,868.5123570151117,1319.6224440352748,571.3143404852451
1533222976.0270002,1119.2963305581252,699.3373901284654,657.2310443748274,1322.2707626708013,667.4727191860405
1533222976.0310001,1093.9987665741596,635.0189611076814,448.40985200388894,1266.6235100300416,848.4828592016936
1533222976.035,1134.0518038852913,651.1026839521415,454.9743737471943,1256.024808605485,783.4350552856685
1533222976.0379999,1203.6114708603145,699.3373901284654,881.6405602967124,1303.721678457215,692.929985277842
1533222976.042,1205.718162195498,635.0189611076814,1001.4361504207027,1301.0733598216882,755.1511348473827
1533222976.046,1144.5895775516497,610.9180703765765,710.5638975910122,1287.826339761605,704.2423949882602
1533222976.05,1123.509713228492,659.1363141958433,454.9743737471943,1261.3268727589882,545.8570743934437
1533222976.054,1153.0206598828245,610.9180703765765,587.0764466529833,1269.2772555480183,755.1511348473827
1533222976.0579998,1167.7761332099908,602.867977775818,859.8977350473516,1316.9741253997481,936.1612748630357
1533222976.062,1186.7493061979649,683.253667284005,841.0258903172374,1332.8694640953581,848.4828592016936
1533222976.066,1150.9139685476412,691.2872975277068,710.9739176359031,1290.4746583971314,757.977789193867
1533222976.07,1102.4341658957755,691.2872975277068,520.6153901551978,1229.5253416028686,766.4635445578009
1533222976.074,1136.1584952204748,667.1864067966017,434.8716286773973,1203.0313014827018,653.3336551291378
1533222976.0779998,1186.7493061979649,618.9517006202781,842.2559504519103,1229.5253416028686,591.1067132351167
1533222976.081,1212.0425531914893,635.0189611076814,1049.846242483166,1274.5738928190717,692.929985277842
1533222976.085,1178.31822386679,683.253667284005,756.5130291791197,1248.074425816455,574.1409948317295
1533222976.089,1127.7274128893,691.2872975277068,521.8462904948808,1203.0313014827018,760.8044435403515
1533222976.093,1110.8652482269504,707.3710203721669,509.94898755296293,1226.8770229673419,842.8237581842442
1533222976.0970001,1144.5895775516497,643.0690537084399,826.2559264460529,1232.179087120845,704.2423949882602
1533222976.101,1134.0518038852913,570.7169944439545,960.4097799863166,1213.6300029072584,709.8957036812291
1533222976.105,1068.7055195806352,635.0189611076814,676.5129091498326,1234.8274057563717,882.4200883329484
1533222976.109,1085.5676842429848,667.1864067966017,469.74349741336886,1250.7281713344316,839.9971038377597
1533222976.113,1096.109774899784,602.867977775818,404.9233613001572,1232.179087120845,543.0304200469592
1533222976.117,1077.13660191181,562.6833642002529,688.4102120917504,1248.074425816455,356.36117901385677
1533222976.12,1112.971939562134,546.5996413557926,1030.5635375031507,1293.1229770326581,494.94833453432125
1533222976.1239998,1089.7853839037928,498.3813975365259,831.9995678945663,1335.5232096133345,839.9971038377597
1533222976.1279998,1053.950046253469,482.2976746920658,513.2308283221106,1290.4746583971314,726.8672144090967
1533222976.1320002,1053.950046253469,514.4486580239293,450.0516125934728,1253.3764899699584,537.3713190295098
1533222976.1360002,1089.7853839037928,530.5323808683895,705.6411364372907,1261.3268727589882,514.7464996086733
1533222976.14,1131.945112550108,482.2976746920658,883.2823208862962,1253.3764899699584,642.0212454187196
1533222976.144,1091.8920752389763,490.33130493576755,704.0002160527168,1263.975191394515,591.1067132351167
1533222976.1479998,1053.950046253469,594.8343475321163,431.1797678633587,1234.8274057563717,427.0680839473312
1533222976.1520002,1085.5676842429848,635.0189611076814,286.76953176575086,1216.278321542785,576.967649178214
1533222976.1560001,1140.3761948812828,594.8343475321163,582.1536854992618,1232.179087120845,888.0791893503977
1533222976.16,1176.2072155411656,578.7506246876562,920.6151500966236,1208.3279387537552,642.0212454187196
1533222976.1629999,1138.2651865556584,594.8343475321163,790.5640176202994,1192.4271731756953,859.7952689121119
1533222976.167,1085.5676842429848,586.8007172884146,519.3844898155149,1197.7292373291987,1168.0801547378112
1533222976.171,1119.2963305581252,602.867977775818,331.48692280916543,1176.5318344800853,885.2525350039133
1533222976.175,1180.4249152019736,570.7169944439545,534.5636335265805,1176.5318344800853,616.5639793269181
1533222976.179,1201.504779525131,514.4486580239293,816.4104041386098,1197.7292373291987,562.8285851213112
1533222976.1829998,1150.9139685476412,458.180321603904,728.6157022313445,1216.278321542785,701.4099483172953
1533222976.187,1075.0299105766267,458.180321603904,492.71806320742263,1208.3279387537552,851.309513548178
1533222976.191,1068.7055195806352,538.5660111120911,325.33326131576104,1163.279387537552,718.3814590451628
1533222976.195,1121.4030218933087,466.2139518476057,512.4099480273187,1197.7292373291987,610.9048783094687
1533222976.199,1140.3761948812828,434.0629685157422,772.5130531849771,1269.2772555480183,724.0405600626123
1533222976.2020001,1150.9139685476412,458.180321603904,648.6155822020573,1285.1725942436283,503.4340898982551
1533222976.206,1131.945112550108,434.0629685157422,518.1535894758321,1279.8759569725748,559.9961384503463
1533222976.21,1077.13660191181,450.14669136020234,434.46160863250634,1271.925574183545,888.0791893503977
1533222976.214,1121.4030218933087,482.2976746920658,431.58978790824955,1293.1229770326581,752.3244805008982
1533222976.218,1182.531606537157,506.41502778022766,830.7695077598934,1306.3754239751913,684.4442299139081
1533222976.2220001,1169.8871415356152,490.33130493576755,900.9232652767275,1285.1725942436283,712.728150352194
1533222976.226,1115.0786308973172,426.02933827204055,608.0000720175723,1266.6235100300416,642.0212454187196
1533222976.23,1070.8122109158187,401.9119851838787,412.3079231332445,1245.4261071809283,743.8387251369643
1533222976.234,1108.754239901326,434.0629685157422,508.71808721328006,1269.2772555480183,780.6026086147035
1533222976.238,1155.131668208449,426.02933827204055,813.1277231644522,1282.5242756081016,574.1409948317295
1533222976.242,1176.2072155411656,426.02933827204055,853.3332133040462,1285.1725942436283,673.1318202034898
1533222976.245,1153.0206598828245,482.2976746920658,576.0000240058574,1282.5242756081016,701.4099483172953
1533222976.2489998,1091.8920752389763,490.33130493576755,375.384273762798,1277.2222114545982,625.0497346908519
1533222976.2529998,1121.4030218933087,474.26404444836413,573.9482433713827,1261.3268727589882,825.8580397808571
1533222976.2570002,1180.4249152019736,522.482288267631,931.6924129487595,1277.2222114545982,882.4200883329484
1533222976.2610002,1159.345050878816,490.33130493576755,937.436054397273,1287.826339761605,842.8237581842442
1533222976.265,1085.5676842429848,426.02933827204055,729.4357423211263,1261.3268727589882,888.0791893503977
1533222976.269,1064.4921369102683,498.3813975365259,582.5637055441528,1242.7777885454018,992.723323415127
1533222976.2729998,1066.5988282454518,474.26404444836413,480.82076026550476,1208.3279387537552,803.2332203600206
1533222976.2770002,1106.6475485661424,377.7946320957169,829.5386074202105,1200.3775559647252,794.7474649960867
1533222976.2810001,1176.2072155411656,393.878354940177,1138.0509644353222,1229.5253416028686,1258.5852247456376
1533222976.285,1134.0518038852913,417.99570802833887,840.2050100224454,1232.179087120845,882.4200883329484
1533222976.2879999,1093.9987665741596,482.2976746920658,582.5637055441528,1213.6300029072584,475.15016945996916
1533222976.292,1129.8341042244836,474.26404444836413,592.8200881014968,1189.7788545401686,735.3529697730305
1533222976.296,1155.131668208449,409.9620777846372,894.7687635783132,1203.0313014827018,924.8488651526173
1533222976.3,1148.8072772124576,458.180321603904,1104.4099960390336,1234.8274057563717,839.9971038377597
1533222976.304,1115.0786308973172,474.26404444836413,891.8969428540564,1248.074425816455,554.3428297573774
1533222976.3079998,1131.945112550108,417.99570802833887,702.769315713034,1242.7777885454018,642.0212454187196
1533222976.312,1123.509713228492,434.0629685157422,582.1536854992618,1237.4757243918984,673.1318202034898
1533222976.316,1104.540857230959,474.26404444836413,790.1539975754084,1253.3764899699584,712.728150352194
1533222976.32,1174.100524205982,434.0629685157422,1159.7946298896932,1290.4746583971314,936.1612748630357
1533222976.324,1193.0736971939561,434.0629685157422,1021.1280352405987,1285.1725942436283,664.6460648395561
1533222976.3270001,1129.8341042244836,458.180321603904,758.9739896534754,1263.975191394515,608.0782239629843
1533222976.331,1098.2164662349676,466.2139518476057,688.0001920468594,1271.925574183545,701.4099483172953
1533222976.335,1144.5895775516497,474.26404444836413,895.999663917996,1234.8274057563717,472.32351511348475
1533222976.339,1174.100524205982,409.9620777846372,1086.7690516486023,1216.278321542785,503.4340898982551
1533222976.343,1153.0206598828245,401.9119851838787,968.6152221141958,1266.6235100300416,678.7851288964588
1533222976.3470001,1117.1896392229417,458.180321603904,866.051396540756,1258.6731272410118,851.309513548178
1533222976.351,1121.4030218933087,498.3813975365259,716.3075390395256,1189.7788545401686,978.5842593582242
1533222976.355,1180.4249152019736,466.2139518476057,775.3848739092339,1176.5318344800853,687.2708842603926
1533222976.359,1235.2291088498305,434.0629685157422,1196.3074190102384,1213.6300029072584,483.635924823903
1533222976.363,1235.2291088498305,426.02933827204055,1193.025578241091,1226.8770229673419,859.7952689121119
1533222976.367,1157.2383595436324,417.99570802833887,892.7178231488483,1205.6796201182285,1001.2090787790607
1533222976.37,1117.1896392229417,466.2139518476057,710.5638975910122,1197.7292373291987,766.4635445578009
1533222976.3739998,1182.531606537157,546.5996413557926,852.5123330092542,1179.180153115612,576.967649178214
1533222976.3779998,1207.8291705211225,514.4486580239293,1174.9746138057685,1171.229770326582,599.5924685990504
1533222976.3820002,1174.100524205982,401.9119851838787,1138.4609844802133,1179.180153115612,591.1067132351167
1533222976.3860002,1159.345050878816,434.0629685157422,829.5386074202105,1189.7788545401686,511.91984526218886
1533222976.39,1144.5895775516497,482.2976746920658,701.1283953284601,1139.433666052912,664.6460648395561
1533222976.394,1119.2963305581252,514.4486580239293,827.8976870356367,1115.5825176858223,763.6368902113164
1533222976.3979998,1159.345050878816,546.5996413557926,1211.487402926314,1179.180153115612,735.3529697730305
1533222976.4020002,1174.100524205982,506.41502778022766,1318.9739896534754,1181.8284717511387,1037.9787545812806
1533222976.4060001,1096.109774899784,450.14669136020234,1008.8207122537899,1134.131601899409,1139.7962342995252
1533222976.41,1068.7055195806352,450.14669136020234,763.076710717415,1126.1812191103788,879.5934339864639
1533222976.4129999,1072.9232192414431,466.2139518476057,863.1795758164992,1187.1305359046419,698.5832939708108
1533222976.417,1066.5988282454518,442.11306111650066,1163.8973509536327,1210.976257389282,574.1409948317295
1533222976.421,1098.2164662349676,409.9620777846372,1192.204697946299,1176.5318344800853,806.059874706505
1533222976.425,1093.9987665741596,377.7946320957169,944.8206162303602,1184.4822172691152,888.0791893503977
1533222976.429,1051.8433549182855,393.878354940177,685.1283713226027,1189.7788545401686,463.8377597495509
1533222976.4329998,1102.4341658957755,450.14669136020234,785.2303962166769,1189.7788545401686,726.8672144090967
1533222976.437,1159.345050878816,482.2976746920658,1088.409972033176,1200.3775559647252,851.309513548178
1533222976.441,1150.9139685476412,426.02933827204055,1198.3591996447133,1213.6300029072584,791.9150183251218
1533222976.445,1108.754239901326,401.9119851838787,989.5380072737748,1226.8770229673419,851.309513548178
1533222976.449,1077.13660191181,393.878354940177,726.9739416417606,1205.6796201182285,608.0782239629843
1533222976.4520001,1102.4341658957755,377.7946320957169,780.3076350629553,1189.7788545401686,755.1511348473827
1533222976.456,1117.1896392229417,369.7610018520152,1030.5635375031507,1195.080918693672,610.9048783094687
1533222976.46,1115.0786308973172,377.7946320957169,1173.7437134660856,1181.8284717511387,675.9584745499743
1533222976.464,1070.8122109158187,401.9119851838787,989.1279872288839,1200.3775559647252,936.1612748630357
1533222976.468,1018.1147086031452,434.0629685157422,753.641208454863,1173.8780889621087,907.8773544247498
1533222976.4720001,1026.550107924761,442.11306111650066,770.0512525056114,1152.6806861129955,1040.8054089277648
1533222976.476,1087.6786925686092,385.84472469647534,1011.2816727281456,1157.9827502664987,760.8044435403515
1533222976.48,1104.540857230959,361.72737160831355,1143.7946058838356,1147.384048841942,664.6460648395561
1533222976.484,1032.8701819303114,426.02933827204055,996.922569106862,1168.5814516910552,1108.685659514755
1533222976.488,1013.9013259327783,450.14669136020234,804.513101196692,1189.7788545401686,789.0883639786374
1533222976.492,1039.1945729263027,426.02933827204055,764.7176311019889,1195.080918693672,656.1603094756223
1533222976.495,1058.1677459142768,417.99570802833887,963.2816007105733,1168.5814516910552,1001.2090787790607
1533222976.4989998,1077.13660191181,434.0629685157422,1327.5894518262455,1176.5318344800853,862.6219232585962
1533222976.5029998,1043.4122725871107,393.878354940177,1275.0766386998428,1187.1305359046419,568.4818938142802
1533222976.5070002,1013.9013259327783,385.84472469647534,1001.8461704655936,1179.180153115612,724.0405600626123
1533222976.5110002,1041.3012642614863,401.9119851838787,951.7943178135465,1210.976257389282,972.9251583407748
1533222976.515,1064.4921369102683,393.878354940177,1146.6664266080925,1224.2287043318152,741.0062784659993
1533222976.519,1091.8920752389763,393.878354940177,1358.7694597481786,1226.8770229673419,627.8763890373364
1533222976.5229998,1112.971939562134,426.02933827204055,1232.8202081307838,1274.5738928190717,803.2332203600206
1533222976.5270002,1081.354301572618,450.14669136020234,959.1797198516438,1261.3268727589882,856.9686145656274
1533222976.5310001,1089.7853839037928,482.2976746920658,869.7432573547945,1237.4757243918984,766.4635445578009
1533222976.535,1148.8072772124576,466.2139518476057,1175.7946538955505,1266.6235100300416,890.9058436968821
1533222976.5379999,1159.345050878816,442.11306111650066,1474.8715086481102,1256.024808605485,961.6127486303566
1533222976.542,1110.8652482269504,434.0629685157422,1254.5638735851549,1234.8274057563717,743.8387251369643
1533222976.546,1066.5988282454518,426.02933827204055,1020.7180151957077,1229.5253416028686,882.4200883329484
1533222976.55,1089.7853839037928,426.02933827204055,951.7943178135465,1213.6300029072584,1018.1805895069284
1533222976.554,1112.971939562134,417.99570802833887,1026.4616566442212,1163.279387537552,896.5649447143315
1533222976.5579998,1140.3761948812828,385.84472469647534,1395.282248868724,1142.0819846884388,953.1269932664228
1533222976.562,1110.8652482269504,450.14669136020234,1370.2559024401953,1171.229770326582,981.4109137047087
1533222976.566,1079.2476102374344,506.41502778022766,1028.922617118577,1157.9827502664987,644.847899765204
1533222976.57,1089.7853839037928,514.4486580239293,893.1278431937393,1134.131601899409,658.9869638221066
1533222976.574,1112.971939562134,514.4486580239293,999.3843697862278,1152.6806861129955,658.9869638221066
1533222976.5770001,1123.509713228492,426.02933827204055,1254.5638735851549,1157.9827502664987,755.1511348473827
1533222976.581,1117.1896392229417,409.9620777846372,1284.9230012122957,1208.3279387537552,941.8145835560045
1533222976.585,1085.5676842429848,442.11306111650066,1087.9999519882851,1187.1305359046419,879.5934339864639
1533222976.589,1077.13660191181,466.2139518476057,915.2815286930011,1168.5814516910552,794.7474649960867
1533222976.593,1106.6475485661424,482.2976746920658,844.307731086385,1210.976257389282,540.1979733759943
1533222976.5970001,1125.6207215541165,482.2976746920658,1171.2819127867199,1210.976257389282,616.5639793269181
1533222976.601,1106.6475485661424,474.26404444836413,1312.820328160071,1203.0313014827018,613.7373249804336
1533222976.605,1060.2744372494603,450.14669136020234,1051.0771428228488,1165.9331330555287,599.5924685990504
1533222976.609,1047.6256552574775,466.2139518476057,871.7950379892694,1155.329004748522,647.6745541116884
1533222976.613,1066.5988282454518,417.99570802833887,923.4869708208803,1150.0323674774688,715.5548046986785
1533222976.617,1079.2476102374344,482.2976746920658,1189.7437374719432,1168.5814516910552,808.8865290529894
1533222976.62,1085.5676842429848,522.482288267631,1166.3591516329984,1197.7292373291987,772.1168532507697
1533222976.6239998,1085.5676842429848,506.41502778022766,901.7433053665094,1205.6796201182285,757.977789193867
1533222976.6279998,1051.8433549182855,482.2976746920658,816.8204241835008,1173.8780889621087,811.7131833994739
1533222976.6320002,1037.0878815911194,474.26404444836413,894.3587435334222,1144.7303033239655,1114.3447605322042
1533222976.6360002,1108.754239901326,450.14669136020234,1112.2045779170116,1168.5814516910552,1049.2911642916988
