timestamps,TP9,AF7,AF8,TP10,Right AUX
1533044997.6520002,1147.51243894127,909.9487474943886,849.2345843330239,1117.4291655184509,1166.0781828173658
1533044997.6560001,1115.5651482449166,863.1795758164992,843.0779145724243,1084.032868201518,1226.1876534163766
1533044997.66,1094.2615017607634,803.2822008570091,841.4361920106478,1022.3854498083523,715.2756182450998
1533044997.664,1035.6887424741565,837.3331892981888,847.1826412847411,986.4218252874715,700.2513280820663
1533044997.668,1112.8987845052823,861.1277951820244,846.7724207982347,1032.6600195405467,850.518849606155
1533044997.6720002,1163.488810632739,855.384153733511,845.951139209471,1032.6600195405467,486.8707089210478
1533044997.675,1144.8515278882198,842.2559504519103,837.7425264005884,1032.6600195405467,718.2854002564573
1533044997.679,1107.576962399182,780.3076350629553,831.5850160242378,1050.6418318009871,697.2477010441473
1533044997.6829998,1080.9514938089287,825.4358863562709,842.6676940859179,1024.9527770123004,555.9910606338157
1533044997.687,1102.2496876064977,895.589643873105,839.7944694488713,1017.2455344840544,730.3060633815717
1533044997.691,1110.2378734522322,905.0251461356571,842.2574735994116,1037.794673948443,835.4945594431215
1533044997.695,1147.51243894127,884.9232412708701,846.7724207982347,1068.6236440614275,769.3716797948342
1533044997.699,1102.2496876064977,827.0768067408447,840.2046899353777,1048.0692436806373,589.0494229712401
1533044997.7029998,1041.016017266841,833.2304682342492,844.7196371342008,1027.5201042162487,673.2002198204799
1533044997.707,1104.910598659548,867.6923169253298,849.2345843330239,1063.4837287371295,892.5942480307749
1533044997.711,1182.1260933772578,898.4614645973618,845.1306982364582,1094.312698850114,883.5772119435794
1533044997.715,1142.1851641485857,890.6668827193836,834.8693017635418,1058.3490743292332,895.597875068694
1533044997.718,1158.1615358400545,832.8204481893582,835.6897427365545,1112.2945111105544,958.7109727056237
1533044997.7220001,1190.108826536408,820.9231452474404,841.8464124971541,1168.8072750958238,1133.0198204799415
1533044997.726,1088.9396796546632,861.9486754768163,840.615751037635,1024.9527770123004,1307.3348232276974
1533044997.73,1067.63603317051,891.0769027642745,840.2046899353777,971.0073402309793,988.7657080051291
1533044997.734,1056.9869362717257,888.2050820400177,838.1527468870948,983.8492371671218,1066.9030958050926
1533044997.738,1030.3669203680563,827.8976870356367,834.048020174778,976.1472555552772,973.7352628686573
1533044997.742,987.7650800863343,818.0513245231837,834.048020174778,942.7509582383445,694.2379190327899
1533044997.746,982.443257980234,826.2559264460529,834.8693017635418,929.9090613022021,715.2756182450998
1533044997.75,1080.9514938089287,855.795013983412,843.4889756746817,1048.0692436806373,757.3510166697197
1533044997.754,1107.576962399182,909.9487474943886,849.2345843330239,1086.605456321868,694.2379190327899
1533044997.7570002,1099.5887765534476,824.204986016588,835.6897427365545,999.263722223614,859.5358856933505
1533044997.7610002,1083.6124048619788,783.9994958769939,826.6598483389082,955.5928551744871,832.4847774317641
1533044997.765,1078.2905827558786,841.8459304070193,836.5110243253183,999.263722223614,784.402124931306
1533044997.769,1128.875156196751,861.9486754768163,840.2046899353777,1035.2273467444948,700.2513280820663
1533044997.7729998,1134.2024309894355,921.4360303914156,844.3094166476944,1076.3308865896736,838.4981864810405
1533044997.7770002,1115.5651482449166,835.282248868724,841.4361920106478,1112.2945111105544,958.7109727056237
1533044997.7810001,1094.2615017607634,762.2566706276332,834.048020174778,1076.3308865896736,772.3814618061916
1533044997.785,1091.6005907077133,845.9486514709589,837.7425264005884,1032.6600195405467,751.3437625938817
1533044997.789,1176.7988185845734,882.0514205466134,840.615751037635,1060.9164015331814,841.5018135189595
1533044997.793,1198.0970123821423,890.2560224694826,842.2574735994116,1058.3490743292332,850.518849606155
1533044997.7970002,1150.17334999432,849.6405122849975,839.384248962365,1078.8982137936218,856.526103681993
1533044997.8,1120.8869703510168,818.0513245231837,841.4361920106478,1055.7764862088834,1039.8581425169446
1533044997.804,1107.576962399182,816.8204241835008,843.0779145724243,1012.1108800761581,1012.8070342553581
1533044997.8079998,1126.214245143701,845.127771176167,833.2275792017653,1053.2091590049351,718.2854002564573
1533044997.812,1174.1379075315233,868.1023369702208,836.5110243253183,1096.8800260540622,706.2585821579044
1533044997.816,1128.875156196751,819.6922449077575,845.5409187229645,1102.0146804619585,970.7316358307382
1533044997.82,1096.9278655003975,781.1285153577473,840.2046899353777,1045.501916476689,1439.5682725773952
1533044997.824,1110.2378734522322,807.7949419658397,836.9212448118246,996.6963950196658,901.6112841179703
1533044997.8279998,1155.5006247870044,849.6405122849975,842.2574735994116,1112.2945111105544,387.6956219087745
1533044997.832,1214.0733840736114,892.3078031039573,846.7724207982347,1212.4728812285493,886.5808389814985
1533044997.836,1184.787004430308,831.5895478496753,839.7944694488713,1191.9237417641607,850.518849606155
1533044997.839,1107.576962399182,788.1022169409335,839.384248962365,1119.996492722399,835.4945594431215
1533044997.843,1088.9396796546632,797.1276991585947,841.0259715241415,1048.0692436806373,694.2379190327899
1533044997.8470001,1115.5651482449166,810.6667626900963,842.2574735994116,1055.7764862088834,282.50712584722476
1533044997.851,1131.5360672498011,869.3332373099037,851.2873679970578,1122.5690808427487,622.1139402821029
1533044997.855,1099.5887765534476,842.6668107018112,842.2574735994116,1122.5690808427487,877.563802894303
1533044997.859,1099.5887765534476,766.7694117364637,836.0999632230609,1140.550893103189,757.3510166697197
1533044997.863,1091.6005907077133,756.5130291791197,840.2046899353777,1114.8618383145026,853.522476644074
1533044997.867,1064.97512211746,786.0512765114688,837.3314652983311,1071.1909712653758,447.798937534347
1533044997.871,1120.8869703510168,862.7687155665983,845.951139209471,1125.136408046697,405.723539109727
1533044997.875,1158.1615358400545,874.2559984636251,850.4660864082941,1135.4109777788913,943.6866825425902
1533044997.879,1110.2378734522322,752.4103081151801,826.6598483389082,1050.6418318009871,856.526103681993
1533044997.8820002,1056.9869362717257,756.1021689292187,825.4283462636381,994.1290678157176,757.3510166697197
1533044997.8860002,1104.910598659548,839.3841297276535,840.615751037635,1081.4655409975699,622.1139402821029
1533044997.89,1155.5006247870044,857.4359343679857,843.4889756746817,1102.0146804619585,571.0215057702876
1533044997.894,1160.8224468931046,864.8204962010731,843.0779145724243,1081.4655409975699,943.6866825425902
1533044997.8979998,1168.810632738839,827.8976870356367,841.4361920106478,1099.4473532580105,1105.9748671917935
1533044997.9020002,1094.2615017607634,797.5385594084956,831.5850160242378,1037.794673948443,1120.9991573548268
1533044997.9060001,1152.8397137339543,771.2821528452943,824.6079052906254,1045.501916476689,892.5942480307749
1533044997.91,1240.6988526638645,827.0768067408447,840.2046899353777,1122.5690808427487,1048.8690236307016
1533044997.914,1174.1379075315233,870.9741576944774,839.7944694488713,1107.1545957862566,967.7280087928192
1533044997.918,1160.8224468931046,762.666690672524,820.9133990648149,1063.4837287371295,796.4227880564206
1533044997.9220002,1158.1615358400545,742.1539255578361,823.7866237018616,1073.7582984693238,1178.1050009159187
1533044997.925,1142.1851641485857,820.9231452474404,829.9432934624613,1094.312698850114,1006.7997801795201
1533044997.929,1192.7751902760422,837.7432093430797,833.6377996882717,1143.1182203071373,862.5395127312695
1533044997.9329998,1176.7988185845734,835.282248868724,833.2275792017653,1153.3927900393317,727.2962813702143
1533044997.937,1123.5478814040669,793.435838344556,824.196844188368,1114.8618383145026,916.6355742810039
1533044997.941,1072.9633079631944,754.461248544645,826.6598483389082,1094.312698850114,1042.8617695548635
1533044997.945,1056.9869362717257,750.7693877306062,831.1747955377314,1066.0510559410777,874.5601758563839
1533044997.949,1128.875156196751,773.74311331965,827.0700688254146,1045.501916476689,868.552921780546
1533044997.9529998,1128.875156196751,779.8976150180644,821.7346806535787,1140.550893103189,913.6319472430848
1533044997.957,1128.875156196751,712.204817975586,818.4503949142747,1189.3564145602124,685.2208829455944
1533044997.961,1118.2260592979667,688.8202321366414,822.5551216265915,1053.2091590049351,483.8670818831288
1533044997.964,1083.6124048619788,769.6412324607204,827.481129927672,1004.4036375479119,607.0834951456311
1533044997.968,1166.149721685789,810.2559024401954,831.9960771264952,1084.032868201518,525.9424803077487
1533044997.9720001,1168.810632738839,831.1795278047844,835.6897427365545,1109.7219229902046,601.076241069793
1533044997.976,1118.2260592979667,802.0513005173262,836.0999632230609,1122.5690808427487,1009.8034072174391
1533044997.98,1070.3023969101444,756.9230492240107,834.048020174778,1099.4473532580105,757.3510166697197
1533044997.984,1043.676928319891,761.0257702879503,828.3015709006847,1032.6600195405467,486.8707089210478
1533044997.988,1115.5651482449166,804.513101196692,838.5629673736012,1099.4473532580105,1045.8653965927826
1533044997.992,1155.5006247870044,838.5640896378717,842.6676940859179,1158.5327053636295,1253.2387616779629
1533044997.996,1139.5242530955356,780.7176551078463,833.2275792017653,1173.9419295037203,877.563802894303
1533044998.0,1126.214245143701,717.9484594240995,829.1228524894485,1194.4910689681087,814.4568602308115
1533044998.004,1128.875156196751,734.7693637247488,826.2496278524019,1135.4109777788913,706.2585821579044
1533044998.0070002,1176.7988185845734,798.7694597481785,830.764575051225,1158.5327053636295,1006.7997801795201
1533044998.0110002,1203.4242871748268,845.9486514709589,846.7724207982347,1199.6309842924068,1015.8106612932771
1533044998.015,1155.5006247870044,799.5894998379605,843.8991961611881,1173.9419295037203,673.2002198204799
1533044998.019,1086.273315915029,694.1538535402639,825.8385667501445,1122.5690808427487,880.5735849056604
1533044998.0229998,1046.337839372941,734.7693637247488,834.8693017635418,1099.4473532580105,805.4398241436161
1533044998.0270002,1115.5651482449166,787.6921968960427,840.2046899353777,1171.374602299772,555.9910606338157
1533044998.0310001,1171.4715437918892,812.3076830746702,839.7944694488713,1230.4546934889897,634.1346034072175
1533044998.035,1123.5478814040669,825.4358863562709,840.2046899353777,1238.1619360172358,787.4057519692251
1533044998.039,1104.910598659548,782.7694357423211,834.8693017635418,1199.6309842924068,823.4677413445686
1533044998.043,1134.2024309894355,768.8203521659285,827.8913504141784,1173.9419295037203,552.9874335958967
1533044998.0470002,1171.4715437918892,759.7948699482674,818.8614560165321,1153.3927900393317,501.89499908408135
1533044998.05,1208.746109280927,820.1022649526484,838.1527468870948,1181.6491720319664,880.5735849056604
1533044998.054,1195.4361013290923,866.051396540756,843.0779145724243,1212.4728812285493,922.6489833302803
1533044998.0579998,1168.810632738839,764.3076110570979,826.6598483389082,1186.7890873562642,769.3716797948342
1533044998.062,1155.5006247870044,747.8975670063495,827.0700688254146,1166.234686975474,685.2208829455944
1533044998.066,1152.8397137339543,847.5895718555328,840.2046899353777,1179.0818448280181,889.5906209928559
1533044998.07,1176.7988185845734,880.8205202069305,842.2574735994116,1215.045469348899,1090.9444220553214
1533044998.074,1200.7633761217767,889.8460024245916,838.5629673736012,1268.9909061302203,1409.5135372778898
1533044998.0779998,1176.7988185845734,842.2559504519103,833.2275792017653,1245.8691785454819,1280.2837149661111
1533044998.082,1171.4715437918892,826.2559264460529,833.2275792017653,1212.4728812285493,1117.995530316908
1533044998.086,1190.108826536408,823.7949659716971,832.8165180995079,1222.752711877145,1027.83747939183
1533044998.089,1176.7988185845734,844.307731086385,829.9432934624613,1217.6127965528472,504.90478109543875
1533044998.093,1179.4597296376235,863.5895958613902,829.9432934624613,1230.4546934889897,420.7539842461989
1533044998.0970001,1150.17334999432,836.9231692532978,831.9960771264952,1199.6309842924068,625.117567320022
1533044998.101,1110.2378734522322,828.7177271254186,833.6377996882717,1140.550893103189,1039.8581425169446
1533044998.105,1126.214245143701,840.6150300673364,831.9960771264952,1148.2528747150336,988.7657080051291
1533044998.109,1216.7342951266614,875.076878758417,837.7425264005884,1197.0636570884585,871.5565488184649
1533044998.113,1219.4006588662955,906.666906725241,850.8771475105515,1197.0636570884585,805.4398241436161
1533044998.117,1219.4006588662955,834.0513485290411,847.1826412847411,1204.7708996167046,1081.9335409415644
1533044998.121,1190.108826536408,777.0257942938077,830.3543545647186,1145.6855475110856,1178.1050009159187
1533044998.125,1128.875156196751,845.9486514709589,838.9731878601075,1114.8618383145026,928.6562374061183
1533044998.129,1182.1260933772578,877.1278191878819,843.0779145724243,1171.374602299772,847.5152225682359
1533044998.1320002,1200.7633761217767,900.5124050268265,847.5928617712474,1168.8072750958238,781.3923429199488
1533044998.1360002,1144.8515278882198,847.5895718555328,841.8464124971541,1107.1545957862566,751.3437625938817
1533044998.14,1096.9278655003975,797.1276991585947,834.048020174778,1114.8618383145026,967.7280087928192
1533044998.144,1166.149721685789,806.5640416261568,837.7425264005884,1168.8072750958238,1364.4345118153508
1533044998.1479998,1211.4124730205613,839.7949899775546,841.4361920106478,1161.1000325675777,1117.995530316908
1533044998.1520002,1195.4361013290923,904.6151260907661,848.4141433600112,1176.5145176240699,811.447078219454
1533044998.1560001,1222.0615699193456,851.6922929194724,839.384248962365,1202.198311496355,703.2549551199853
1533044998.16,1184.787004430308,795.4867787740209,831.5850160242378,1161.1000325675777,589.0494229712401
1533044998.164,1182.1260933772578,832.8204481893582,835.2795222500482,1145.6855475110856,883.5772119435794
1533044998.168,1230.0497557650801,847.1795518106418,834.048020174778,1148.2528747150336,1009.8034072174391
1533044998.171,1208.746109280927,884.1023609760782,832.8165180995079,1122.5690808427487,763.3644257189961
1533044998.175,1163.488810632739,857.4359343679857,837.7425264005884,1112.2945111105544,913.6319472430848
1533044998.179,1126.214245143701,775.3848739092339,835.6897427365545,1071.1909712653758,892.5942480307749
1533044998.1829998,1094.2615017607634,805.7431613313648,841.8464124971541,1060.9164015331814,736.3133174574098
1533044998.187,1112.8987845052823,820.9231452474404,845.951139209471,1081.4655409975699,937.6732734933138
1533044998.191,1160.8224468931046,845.5386314260679,844.3094166476944,1117.4291655184509,988.7657080051291
1533044998.195,1144.8515278882198,858.2559744577677,849.6456454352814,1117.4291655184509,862.5395127312695
1533044998.199,1086.273315915029,797.9485794533866,845.951139209471,1066.0510559410777,730.3060633815717
1533044998.2029998,1078.2905827558786,808.6149820556216,854.9810336071172,1109.7219229902046,802.4300421322587
1533044998.207,1128.875156196751,826.6667866959538,861.1385439834679,1132.843650574943,676.2100018318373
1533044998.211,1155.5006247870044,852.5123330092542,852.9290905588343,1078.8982137936218,396.7065030225316
1533044998.214,1184.787004430308,861.9486754768163,858.2653193464213,1130.2710624545932,667.1929657446419
1533044998.218,1168.810632738839,832.4104281444672,857.4440377576575,1158.5327053636295,1382.4685839897418
1533044998.2220001,1107.576962399182,814.769483754036,854.9810336071172,1122.5690808427487,1451.5889357025096
1533044998.226,1099.5887765534476,813.1277231644522,854.9810336071172,1089.1727835258162,838.4981864810405
1533044998.23,1168.810632738839,854.5641136437291,859.9070419081978,1084.032868201518,889.5906209928559
1533044998.234,1184.787004430308,852.1023129643633,855.802315195881,1140.550893103189,1178.1050009159187
1533044998.238,1168.810632738839,754.051228499754,849.2345843330239,1127.7037352506452,697.2477010441473
1533044998.242,1163.488810632739,740.1021449233613,850.8771475105515,1086.605456321868,522.9326982963913
1533044998.246,1150.17334999432,840.2050100224454,852.518870072328,1068.6236440614275,706.2585821579044
1533044998.25,1150.17334999432,882.4614405915044,855.3920947093746,1068.6236440614275,775.3850888441107
1533044998.254,1147.51243894127,875.486898803308,857.4440377576575,1107.1545957862566,943.6866825425902
1533044998.2570002,1120.8869703510168,822.1540455871233,843.8991961611881,1119.996492722399,555.9910606338157
1533044998.2610002,1091.6005907077133,827.0768067408447,840.615751037635,1086.605456321868,892.5942480307749
1533044998.265,1102.2496876064977,826.6667866959538,844.7196371342008,1053.2091590049351,1187.1158820296757
1533044998.269,1139.5242530955356,824.204986016588,846.3613596959773,1060.9164015331814,571.0215057702876
1533044998.2729998,1142.1851641485857,854.97413368862,848.8243638465176,1063.4837287371295,546.9740245466203
1533044998.2770002,1123.5478814040669,834.4613685739321,843.8991961611881,1048.0692436806373,898.6015021066129
1533044998.2810001,1078.2905827558786,772.5130531849771,841.4361920106478,1063.4837287371295,913.6319472430848
1533044998.285,1054.3260252186753,786.0512765114688,850.0558659217877,1058.3490743292332,943.6866825425902
1533044998.289,1099.5887765534476,835.282248868724,854.1605926341044,1022.3854498083523,994.7729620809672
1533044998.293,1179.4597296376235,879.5896198672476,856.6235967846447,1045.501916476689,934.6696464553947
1533044998.296,1158.1615358400545,815.9995438887089,852.9290905588343,1050.6418318009871,1012.8070342553581
1533044998.3,1078.2905827558786,740.1021449233613,836.9212448118246,929.9090613022021,1018.8204433046345
1533044998.304,1075.6242190162445,798.3585994982776,840.2046899353777,963.3000977027332,760.3546437076387
1533044998.3079998,1144.8515278882198,829.5386074202105,848.0039228735048,1040.3672620687928,631.1248213958601
1533044998.312,1171.4715437918892,848.4104521503247,851.2873679970578,1060.9164015331814,1087.9407950174025
1533044998.316,1160.8224468931046,829.1277471703096,847.5928617712474,1094.312698850114,1036.8483605055872
1533044998.32,1166.149721685789,814.769483754036,846.7724207982347,1058.3490743292332,796.4227880564206
1533044998.324,1086.273315915029,806.5640416261568,840.2046899353777,1022.3854498083523,640.1418574830556
1533044998.3279998,1131.5360672498011,809.8458823953044,841.0259715241415,1048.0692436806373,1105.9748671917935
1533044998.332,1200.7633761217767,857.4359343679857,853.7503721475981,1073.7582984693238,1066.9030958050926
1533044998.336,1136.8633420424856,826.6667866959538,842.6676940859179,1027.5201042162487,655.1723026195274
1533044998.339,1107.576962399182,790.1539975754084,834.048020174778,994.1290678157176,625.117567320022
1533044998.343,1094.2615017607634,815.9995438887089,845.951139209471,1012.1108800761581,736.3133174574098
1533044998.3470001,1107.576962399182,813.1277231644522,846.3613596959773,988.9891524914196,685.2208829455944
1533044998.351,1144.8515278882198,852.1023129643633,848.8243638465176,971.0073402309793,546.9740245466203
1533044998.355,1158.1615358400545,838.9741096827626,850.8771475105515,1045.501916476689,498.8913720461623
1533044998.359,1120.8869703510168,761.0257702879503,838.1527468870948,1068.6236440614275,438.7819014471515
1533044998.363,1043.676928319891,795.0767587291299,841.0259715241415,1030.087431420197,655.1723026195274
1533044998.367,1062.3142110644098,807.7949419658397,841.4361920106478,1037.794673948443,601.076241069793
1533044998.371,1102.2496876064977,823.7949659716971,843.4889756746817,983.8492371671218,552.9874335958967
1533044998.375,1086.273315915029,842.6668107018112,852.1078089700706,1001.8310494275622,661.1795566953655
1533044998.379,1027.7005566284222,765.9485314416718,841.0259715241415,1030.087431420197,877.563802894303
1533044998.3820002,982.443257980234,788.5130771908346,844.3094166476944,976.1472555552772,1145.040483605056
1533044998.3860002,1056.9869362717257,852.1023129643633,848.4141433600112,991.5564796953679,1093.9542040666788
1533044998.39,1104.910598659548,871.3841777393684,842.2574735994116,1009.5382919558083,958.7109727056237
1533044998.394,1104.910598659548,873.8459784187341,842.6676940859179,1019.8128616880026,970.7316358307382
1533044998.3979998,1091.6005907077133,827.8976870356367,843.4889756746817,1055.7764862088834,814.4568602308115
1533044998.4020002,1080.9514938089287,811.0767827349873,846.7724207982347,1032.6600195405467,769.3716797948342
1533044998.4060001,1102.2496876064977,809.0258423055226,846.3613596959773,994.1290678157176,859.5358856933505
1533044998.41,1182.1260933772578,844.717751131276,848.8243638465176,1030.087431420197,1087.9407950174025
1533044998.414,1176.7988185845734,858.6668347076687,852.1078089700706,1076.3308865896736,985.7620809672101
1533044998.418,1104.910598659548,813.5385834143531,852.518870072328,1076.3308865896736,625.117567320022
1533044998.421,1083.6124048619788,799.1794797930695,845.5409187229645,1030.087431420197,1120.9991573548268
1533044998.425,1086.273315915029,783.9994958769939,839.7944694488713,981.2819099631736,1217.1706173291811
1533044998.429,1128.875156196751,802.8713406071081,839.7944694488713,1037.794673948443,772.3814618061916
1533044998.4329998,1182.1260933772578,868.5123570151117,845.1306982364582,1122.5690808427487,495.88774500824326
1533044998.437,1160.8224468931046,834.0513485290411,841.4361920106478,1089.1727835258162,318.56911522256826
1533044998.441,1110.2378734522322,807.3849219209487,836.5110243253183,1048.0692436806373,703.2549551199853
1533044998.445,1096.9278655003975,817.6413044782927,837.3314652983311,1035.2273467444948,817.4604872687305
1533044998.449,1115.5651482449166,838.9741096827626,846.3613596959773,1040.3672620687928,742.3267265066862
1533044998.4529998,1118.2260592979667,875.486898803308,844.3094166476944,1071.1909712653758,838.4981864810405
1533044998.457,1059.6533000113598,827.0768067408447,836.0999632230609,1022.3854498083523,787.4057519692251
1533044998.461,1030.3669203680563,809.0258423055226,840.615751037635,978.7145827592254,874.5601758563839
1533044998.464,998.4141769851187,824.615006061479,848.4141433600112,971.0073402309793,1021.8240703425536
1533044998.468,1030.3669203680563,808.6149820556216,843.0779145724243,983.8492371671218,787.4057519692251
1533044998.4720001,1059.6533000113598,849.6405122849975,834.8693017635418,981.2819099631736,847.5152225682359
1533044998.476,1014.3905486765875,831.1795278047844,840.2046899353777,965.8674249066813,919.6392013189229
1533044998.48,1011.7296376235374,737.2303241991045,836.9212448118246,927.3364731818524,715.2756182450998
1533044998.484,1009.0632738839032,796.7176791137038,838.1527468870948,937.6110429140466,898.6015021066129
1533044998.488,1049.0042031125752,892.3078031039573,840.2046899353777,971.0073402309793,868.552921780546
1533044998.492,1094.2615017607634,905.0251461356571,844.3094166476944,1001.8310494275622,685.2208829455944
1533044998.496,1112.8987845052823,865.6405362908549,850.4660864082941,1081.4655409975699,763.3644257189961
1533044998.5,1062.3142110644098,811.4868027798783,841.4361920106478,1040.3672620687928,562.0044696830921
1533044998.5029998,1041.016017266841,818.0513245231837,837.7425264005884,1004.4036375479119,552.9874335958967
1533044998.5070002,1094.2615017607634,837.7432093430797,842.6676940859179,1040.3672620687928,1009.8034072174391
1533044998.5110002,1176.7988185845734,864.4104761561821,847.1826412847411,1086.605456321868,985.7620809672101
1533044998.515,1190.108826536408,842.6668107018112,850.0558659217877,1114.8618383145026,1009.8034072174391
1533044998.519,1110.2378734522322,780.7176551078463,837.3314652983311,1078.8982137936218,1136.0296024912989
1533044998.5229998,1064.97512211746,805.3331412864738,838.1527468870948,1001.8310494275622,946.6903095805093
1533044998.5270002,1083.6124048619788,862.3586955217073,849.2345843330239,1040.3672620687928,925.6526103681992
1533044998.5310001,1126.214245143701,880.4105001620395,844.3094166476944,1058.3490743292332,652.16252060817
1533044998.535,1155.5006247870044,877.5386794377828,846.7724207982347,1037.794673948443,877.563802894303
1533044998.539,1104.910598659548,840.6150300673364,843.4889756746817,1042.934589272741,1256.242388715882
1533044998.543,1019.7123707826877,826.2559264460529,847.1826412847411,960.7327704987849,1154.0575196922514
1533044998.546,1051.6651141656253,824.204986016588,845.5409187229645,929.9090613022021,1136.0296024912989
1533044998.55,1131.5360672498011,846.3586715158499,842.2574735994116,971.0073402309793,799.4264150943396
1533044998.554,1110.2378734522322,863.5895958613902,845.951139209471,958.1654432948368,733.3096904194907
1533044998.5579998,1056.9869362717257,829.9486274651015,843.8991961611881,942.7509582383445,871.5565488184649
1533044998.562,1054.3260252186753,789.3331172806164,841.8464124971541,924.7691459779041,811.447078219454
1533044998.566,1091.6005907077133,794.255878434338,843.8991961611881,893.9454367813213,745.3303535446053
1533044998.57,1139.5242530955356,864.8204962010731,858.6755398329276,968.4400130270311,793.4191610185015
1533044998.574,1139.5242530955356,896.4105241678969,861.5487644699742,1055.7764862088834,787.4057519692251
1533044998.5779998,1118.2260592979667,854.1540935988381,854.9810336071172,1063.4837287371295,637.1382304451365
1533044998.582,1104.910598659548,841.8459304070193,856.2125356823874,1035.2273467444948,546.9740245466203
1533044998.586,1102.2496876064977,845.5386314260679,855.802315195881,1027.5201042162487,721.2890272943763
1533044998.589,1155.5006247870044,860.3077550922425,861.1385439834679,1102.0146804619585,583.0421688954021
1533044998.593,1208.746109280927,890.2560224694826,861.5487644699742,1158.5327053636295,616.1005312328265
1533044998.5970001,1152.8397137339543,823.3841057217961,852.1078089700706,1089.1727835258162,1184.1122549917568
1533044998.601,1054.3260252186753,794.6667386842389,850.4660864082941,994.1290678157176,877.563802894303
1533044998.605,1064.97512211746,850.4613925797895,852.9290905588343,1014.6782072801062,688.2306649569518
1533044998.609,1179.4597296376235,839.7949899775546,851.2873679970578,1076.3308865896736,802.4300421322587
1533044998.613,1182.1260933772578,868.9232172650127,857.8542582441638,1091.7401107297642,546.9740245466203
1533044998.617,1104.910598659548,838.1540695929807,851.6975884835642,1030.087431420197,474.85004579593334
1533044998.621,1070.3023969101444,803.2822008570091,851.6975884835642,1004.4036375479119,772.3814618061916
1533044998.625,1043.676928319891,871.7950379892694,864.4219891070209,1004.4036375479119,1108.9784942297124
1533044998.6279998,1083.6124048619788,890.6668827193836,861.1385439834679,988.9891524914196,1271.2666788789156
1533044998.6320002,1134.2024309894355,904.6151260907661,862.369205442987,1030.087431420197,1283.28734200403
1533044998.6360002,1115.5651482449166,868.9232172650127,861.5487644699742,1055.7764862088834,1307.3348232276974
1533044998.64,1104.910598659548,826.2559264460529,857.0338172711511,1037.794673948443,991.7693350430482
1533044998.644,1112.8987845052823,831.9995678945663,855.3920947093746,1045.501916476689,763.3644257189961
1533044998.6479998,1168.810632738839,842.6668107018112,858.6755398329276,1066.0510559410777,1024.8276973804727
1533044998.6520002,1227.3833920254458,862.7687155665983,859.085760319434,1102.0146804619585,982.7522989558527
1533044998.6560001,1219.4006588662955,834.0513485290411,857.0338172711511,1150.8254628353834,1099.961458142517
1533044998.66,1182.1260933772578,804.513101196692,851.6975884835642,1109.7219229902046,985.7620809672101
1533044998.664,1174.1379075315233,846.3586715158499,854.9810336071172,1089.1727835258162,838.4981864810405
1533044998.668,1211.4124730205613,866.8714366305378,863.6007075182571,1130.2710624545932,1024.8276973804727
1533044998.671,1214.0733840736114,909.1278671995967,865.6534911822911,1171.374602299772,1130.0161934420223
1533044998.675,1208.746109280927,873.8459784187341,861.5487644699742,1235.5946088132876,967.7280087928192
1533044998.679,1174.1379075315233,824.615006061479,854.1605926341044,1191.9237417641607,817.4604872687305
1533044998.6829998,1099.5887765534476,841.0258903172374,852.518870072328,1089.1727835258162,820.4641143066495
1533044998.687,1104.910598659548,835.282248868724,853.3393110453408,1040.3672620687928,895.597875068694
1533044998.691,1152.8397137339543,875.896918848199,855.802315195881,1055.7764862088834,961.7145997435427
1533044998.695,1174.1379075315233,879.1795998223566,858.6755398329276,1107.1545957862566,1072.916504854369
1533044998.699,1139.5242530955356,819.2822248628665,852.1078089700706,1053.2091590049351,925.6526103681992
1533044998.7029998,1070.3023969101444,809.4358623504135,849.6456454352814,986.4218252874715,772.3814618061916
1533044998.707,1072.9633079631944,809.0258423055226,849.6456454352814,1027.5201042162487,829.481150393845
1533044998.711,1144.8515278882198,850.0513725348985,855.3920947093746,1078.8982137936218,628.121194357941
1533044998.714,1144.8515278882198,911.5896678789625,862.7802665452444,1045.501916476689,742.3267265066862
1533044998.718,1083.6124048619788,813.5385834143531,837.7425264005884,1006.9709647518602,814.4568602308115
1533044998.7220001,1049.0042031125752,793.0258182996652,838.5629673736012,973.5746674349275,823.4677413445686
1533044998.726,1096.9278655003975,859.4868747974506,858.6755398329276,1009.5382919558083,814.4568602308115
1533044998.73,1120.8869703510168,882.4614405915044,857.0338172711511,1060.9164015331814,802.4300421322587
1533044998.734,1118.2260592979667,880.8205202069305,862.7802665452444,1084.032868201518,772.3814618061916
1533044998.738,1078.2905827558786,848.8204721952156,864.8322095935273,1071.1909712653758,1130.0161934420223
1533044998.742,1041.016017266841,842.2559504519103,860.3172623947041,1050.6418318009871,1349.4102216523172
1533044998.746,1104.910598659548,820.5122849975394,850.0558659217877,1084.032868201518,1078.923758930207
1533044998.75,1174.1379075315233,816.8204241835008,847.1826412847411,1132.843650574943,937.6732734933138
1533044998.7529998,1208.746109280927,863.5895958613902,859.9070419081978,1166.234686975474,661.1795566953655
1533044998.7570002,1206.0851982278768,820.5122849975394,857.8542582441638,1102.0146804619585,640.1418574830556
1533044998.7610002,1163.488810632739,781.9485554475292,848.4141433600112,1042.934589272741,826.477523355926
1533044998.765,1155.5006247870044,837.3331892981888,854.9810336071172,1073.7582984693238,832.4847774317641
1533044998.769,1160.8224468931046,877.1278191878819,861.9589849564807,1045.501916476689,997.7827440923246
1533044998.7729998,1142.1851641485857,908.3078271098148,861.5487644699742,1076.3308865896736,1048.8690236307016
1533044998.7770002,1147.51243894127,867.6923169253298,860.7274828812104,1107.1545957862566,796.4227880564206
1533044998.7810001,1155.5006247870044,855.795013983412,858.2653193464213,1078.8982137936218,1075.920131892288
1533044998.785,1094.2615017607634,847.5895718555328,848.8243638465176,994.1290678157176,1090.9444220553214
1533044998.789,1104.910598659548,854.5641136437291,859.085760319434,981.2819099631736,676.2100018318373
1533044998.793,1160.8224468931046,888.6151020849087,865.6534911822911,1078.8982137936218,637.1382304451365
1533044998.796,1142.1851641485857,826.6667866959538,856.2125356823874,1089.1727835258162,583.0421688954021
1533044998.8,1099.5887765534476,815.1795037989269,854.9810336071172,1022.3854498083523,655.1723026195274
1533044998.804,1088.9396796546632,858.6668347076687,858.6755398329276,996.6963950196658,1051.878805642059
1533044998.8079998,1107.576962399182,866.051396540756,861.9589849564807,1004.4036375479119,1295.314160102583
1533044998.812,1155.5006247870044,898.8714846422527,864.8322095935273,1048.0692436806373,1081.9335409415644
1533044998.816,1190.108826536408,853.3332133040462,856.2125356823874,1084.032868201518,850.518849606155
1533044998.82,1155.5006247870044,800.4103801327524,848.0039228735048,1060.9164015331814,1024.8276973804727
1533044998.824,1094.2615017607634,815.9995438887089,852.1078089700706,1032.6600195405467,760.3546437076387
1533044998.8279998,1214.0733840736114,829.9486274651015,858.2653193464213,1109.7219229902046,549.9838065579777
1533044998.832,1285.9616039986367,862.3586955217073,860.7274828812104,1155.96011724328,279.49734383586735
1533044998.835,1280.6343292059526,847.1795518106418,857.0338172711511,1171.374602299772,414.7405751969225
1533044998.839,1238.0324889242304,799.1794797930695,852.9290905588343,1181.6491720319664,261.46942663491484
1533044998.843,1155.5006247870044,792.2049380048732,847.5928617712474,1130.2710624545932,192.34291994870856
1533044998.8470001,1198.0970123821423,816.8204241835008,841.4361920106478,1073.7582984693238,571.0215057702876
1533044998.851,1214.0733840736114,887.7950619951268,844.7196371342008,1089.1727835258162,631.1248213958601
1533044998.855,1200.7633761217767,903.3842257510832,843.8991961611881,1119.996492722399,919.6392013189229
1533044998.859,1187.447915483358,795.8976390239218,839.384248962365,1081.4655409975699,1048.8690236307016
1533044998.863,1091.6005907077133,785.6412564665778,846.3613596959773,1040.3672620687928,1027.83747939183
1533044998.867,1094.2615017607634,872.2050580341603,853.7503721475981,1030.087431420197,916.6355742810039
1533044998.871,1155.5006247870044,895.1796238282141,851.6975884835642,1058.3490743292332,835.4945594431215
1533044998.875,1147.51243894127,889.0251221297997,853.3393110453408,1076.3308865896736,835.4945594431215
1533044998.8779998,1115.5651482449166,859.4868747974506,850.0558659217877,1068.6236440614275,808.4434511815351
1533044998.8820002,1067.63603317051,850.0513725348985,845.5409187229645,1024.9527770123004,1063.8994687671734
1533044998.8860002,1088.9396796546632,825.8459064011619,849.6456454352814,1040.3672620687928,1039.8581425169446
1533044998.89,1152.8397137339543,829.5386074202105,844.7196371342008,1099.4473532580105,1027.83747939183
1533044998.894,1211.4124730205613,858.2559744577677,855.802315195881,1107.1545957862566,1003.7899981681627
1533044998.8979998,1227.3833920254458,809.4358623504135,850.4660864082941,1109.7219229902046,799.4264150943396
1533044998.9020002,1166.149721685789,805.7431613313648,833.2275792017653,1042.934589272741,748.3339805825243
1533044998.9060001,1158.1615358400545,863.9996159062812,846.7724207982347,1053.2091590049351,895.597875068694
1533044998.91,1216.7342951266614,884.9232412708701,854.9810336071172,1117.4291655184509,1178.1050009159187
1533044998.914,1238.0324889242304,892.7178231488483,852.518870072328,1148.2528747150336,970.7316358307382
1533044998.918,1200.7633761217767,857.4359343679857,846.7724207982347,1173.9419295037203,628.121194357941
1533044998.921,1115.5651482449166,842.6668107018112,847.5928617712474,1127.7037352506452,646.1552665323319
1533044998.925,1118.2260592979667,843.4868507915932,846.3613596959773,1112.2945111105544,949.6939366184283
1533044998.929,1195.4361013290923,868.9232172650127,853.7503721475981,1135.4109777788913,1136.0296024912989
1533044998.9329998,1195.4361013290923,880.8205202069305,852.518870072328,1143.1182203071373,1015.8106612932771
1533044998.937,1171.4715437918892,815.1795037989269,837.3314652983311,1179.0818448280181,628.121194357941
1533044998.941,1131.5360672498011,808.2049620107306,844.3094166476944,1135.4109777788913,583.0421688954021
1533044998.945,1080.9514938089287,842.6668107018112,850.8771475105515,1050.6418318009871,1066.9030958050926
1533044998.949,1166.149721685789,858.6668347076687,844.3094166476944,1063.4837287371295,1075.920131892288
1533044998.9529998,1259.3361354083836,901.7433053665094,849.2345843330239,1089.1727835258162,691.2342919948709
1533044998.957,1195.4361013290923,856.2050340283029,849.6456454352814,1125.136408046697,1072.916504854369
1533044998.96,1091.6005907077133,801.6412804724353,840.2046899353777,1066.0510559410777,1220.1803993405385
1533044998.964,1070.3023969101444,839.3841297276535,845.951139209471,988.9891524914196,751.3437625938817
1533044998.968,1118.2260592979667,859.8977350473516,846.3613596959773,1086.605456321868,769.3716797948342
1533044998.9720001,1179.4597296376235,888.2050820400177,846.7724207982347,1143.1182203071373,637.1382304451365
1533044998.976,1158.1615358400545,866.8714366305378,847.1826412847411,1076.3308865896736,766.3680527569152
1533044998.98,1115.5651482449166,835.282248868724,848.0039228735048,1091.7401107297642,1084.9371679794833
1533044998.984,1080.9514938089287,814.358623504135,842.6676940859179,1084.032868201518,1051.878805642059
1533044998.988,1107.576962399182,803.2822008570091,834.048020174778,1071.1909712653758,1015.8106612932771
1533044998.992,1163.488810632739,875.076878758417,845.951139209471,1099.4473532580105,1003.7899981681627
1533044998.996,1152.8397137339543,882.0514205466134,848.8243638465176,1107.1545957862566,1051.878805642059
1533044999.0,1134.2024309894355,793.435838344556,839.7944694488713,1058.3490743292332,943.6866825425902
1533044999.0029998,1072.9633079631944,820.5122849975394,840.2046899353777,1001.8310494275622,637.1382304451365
1533044999.0070002,1107.576962399182,845.5386314260679,841.0259715241415,1019.8128616880026,270.4864627221103
1533044999.0110002,1163.488810632739,877.1278191878819,847.5928617712474,1030.087431420197,309.55207913537276
1533044999.015,1158.1615358400545,882.0514205466134,850.4660864082941,1066.0510559410777,628.121194357941
1533044999.019,1115.5651482449166,842.2559504519103,840.615751037635,1081.4655409975699,444.79531049642793
1533044999.0229998,1086.273315915029,853.7432333489371,843.4889756746817,1068.6236440614275,820.4641143066495
1533044999.0270002,1163.488810632739,843.0768307467022,845.951139209471,1117.4291655184509,1157.0673017036088
1533044999.0310001,1203.4242871748268,838.9741096827626,841.4361920106478,1148.2528747150336,784.402124931306
1533044999.035,1147.51243894127,845.127771176167,841.8464124971541,1127.7037352506452,922.6489833302803
1533044999.039,1115.5651482449166,832.4104281444672,840.615751037635,1107.1545957862566,961.7145997435427
1533044999.043,1075.6242190162445,827.8976870356367,841.4361920106478,1081.4655409975699,844.5054405568785
1533044999.046,1078.2905827558786,797.1276991585947,843.8991961611881,1060.9164015331814,1175.0952189045613
1533044999.05,1166.149721685789,814.358623504135,845.951139209471,1089.1727835258162,1421.5342004030042
1533044999.054,1195.4361013290923,844.717751131276,846.7724207982347,1112.2945111105544,1163.0745557794469
1533044999.0579998,1171.4715437918892,755.2821288394368,846.3613596959773,1060.9164015331814,919.6392013189229
1533044999.062,1150.17334999432,752.4103081151801,846.3613596959773,994.1290678157176,1280.2837149661111
1533044999.066,1144.8515278882198,779.8976150180644,840.615751037635,988.9891524914196,979.7486719179337
1533044999.07,1152.8397137339543,789.3331172806164,841.4361920106478,1012.1108800761581,745.3303535446053
1533044999.074,1211.4124730205613,826.6667866959538,843.4889756746817,1037.794673948443,865.5431397691885
1533044999.0779998,1200.7633761217767,742.973965647618,839.7944694488713,1063.4837287371295,868.552921780546
1533044999.082,1120.8869703510168,735.5894038145308,847.1826412847411,1050.6418318009871,985.7620809672101
1533044999.085,1136.8633420424856,790.1539975754084,855.802315195881,1022.3854498083523,763.3644257189961
1533044999.089,1224.7224809723957,796.7176791137038,855.3920947093746,1040.3672620687928,862.5395127312695
1533044999.093,1224.7224809723957,819.2822248628665,857.8542582441638,1107.1545957862566,838.4981864810405
1533044999.0970001,1150.17334999432,795.8976390239218,863.6007075182571,1137.9783049828393,763.3644257189961
1533044999.101,1126.214245143701,762.666690672524,864.0117686205145,1102.0146804619585,835.4945594431215
1533044999.105,1139.5242530955356,758.5639696085844,855.3920947093746,1102.0146804619585,847.5152225682359
1533044999.109,1152.8397137339543,793.0258182996652,859.085760319434,1114.8618383145026,724.2926543322953
1533044999.113,1150.17334999432,819.2822248628665,866.0637116687974,1125.136408046697,372.66517677230263
1533044999.117,1123.5478814040669,815.1795037989269,856.2125356823874,1119.996492722399,474.85004579593334
1533044999.121,1046.337839372941,802.0513005173262,848.4141433600112,1024.9527770123004,778.3887158820297
1533044999.125,1049.0042031125752,774.153973569551,845.5409187229645,988.9891524914196,781.3923429199488
1533044999.1279998,1107.576962399182,816.8204241835008,850.4660864082941,991.5564796953679,865.5431397691885
1533044999.1320002,1123.5478814040669,905.846026430449,861.1385439834679,1009.5382919558083,742.3267265066862
1533044999.1360002,1134.2024309894355,861.5386554319253,856.2125356823874,1089.1727835258162,820.4641143066495
1533044999.14,1118.2260592979667,805.3331412864738,843.4889756746817,1102.0146804619585,1027.83747939183
1533044999.144,1046.337839372941,858.2559744577677,848.4141433600112,1058.3490743292332,988.7657080051291
1533044999.1479998,1035.6887424741565,874.6668587135262,854.5708131206109,978.7145827592254,901.6112841179703
1533044999.1520002,1107.576962399182,921.8460504363064,853.3393110453408,965.8674249066813,913.6319472430848
1533044999.1560001,1142.1851641485857,906.666906725241,855.3920947093746,1055.7764862088834,871.5565488184649
1533044999.16,1123.5478814040669,874.2559984636251,853.3393110453408,1053.2091590049351,1114.9919032789887
1533044999.164,1070.3023969101444,908.3078271098148,855.3920947093746,1009.5382919558083,1298.3177871405019
1533044999.167,1059.6533000113598,900.5124050268265,853.7503721475981,999.263722223614,1111.9821212676313
1533044999.171,1120.8869703510168,916.923289282585,857.0338172711511,1027.5201042162487,1172.0915918666421
1533044999.175,1174.1379075315233,930.0514925641857,866.0637116687974,1107.1545957862566,1445.5816816266715
1533044999.179,1134.2024309894355,909.1278671995967,863.6007075182571,1073.7582984693238,1361.4308847774319
1533044999.1829998,1054.3260252186753,923.0769507759893,861.5487644699742,1004.4036375479119,817.4604872687305
1533044999.187,1102.2496876064977,930.8715326539676,851.2873679970578,1019.8128616880026,745.3303535446053
1533044999.191,1142.1851641485857,973.5379832679174,857.4440377576575,1060.9164015331814,985.7620809672101
1533044999.195,1123.5478814040669,976.820664242075,863.1904870317508,1091.7401107297642,898.6015021066129
1533044999.199,1136.8633420424856,897.6405843025698,857.4440377576575,1102.0146804619585,534.9533614215057
1533044999.2029998,1128.875156196751,921.0251701415145,861.5487644699742,1089.1727835258162,631.1248213958601
1533044999.207,1112.8987845052823,957.9488195119609,859.4968214216914,1060.9164015331814,1063.8994687671734
1533044999.21,1131.5360672498011,970.2561424987697,859.085760319434,1050.6418318009871,1060.8958417292545
1533044999.214,1134.2024309894355,974.3588635627093,855.802315195881,1055.7764862088834,709.2683641692618
1533044999.218,1123.5478814040669,927.1796718399289,850.8771475105515,1060.9164015331814,598.0664590584356
1533044999.2220001,1107.576962399182,915.6923889429021,853.3393110453408,1037.794673948443,568.0117237589302
1533044999.226,1067.63603317051,938.6669547369559,858.6755398329276,953.0255279705389,919.6392013189229
1533044999.23,1136.8633420424856,957.127939217169,856.6235967846447,1024.9527770123004,1196.1329181168712
1533044999.234,1174.1379075315233,977.640704331857,853.7503721475981,1086.605456321868,835.4945594431215
1533044999.238,1144.8515278882198,897.6405843025698,848.8243638465176,1060.9164015331814,799.4264150943396
1533044999.242,1139.5242530955356,876.7177991429909,843.0779145724243,1022.3854498083523,1084.9371679794833
1533044999.246,1102.2496876064977,943.9997359355683,852.9290905588343,1027.5201042162487,1093.9542040666788
1533044999.25,1118.2260592979667,940.3078751215296,849.2345843330239,1050.6418318009871,748.3339805825243
1533044999.2529998,1163.488810632739,974.7688836076003,849.6456454352814,1055.7764862088834,739.3169444953288
1533044999.2570002,1139.5242530955356,966.9743017296221,849.6456454352814,1048.0692436806373,883.5772119435794
1533044999.2610002,1062.3142110644098,919.3842497569407,841.0259715241415,983.8492371671218,459.81960065946146
1533044999.265,1064.97512211746,882.4614405915044,848.0039228735048,958.1654432948368,483.8670818831288
1533044999.269,1123.5478814040669,921.0251701415145,861.5487644699742,994.1290678157176,976.7450448800147
1533044999.2729998,1136.8633420424856,992.4098279980316,857.4440377576575,1042.934589272741,973.7352628686573
1533044999.2770002,1115.5651482449166,961.6406803259996,850.0558659217877,1053.2091590049351,549.9838065579777
1533044999.2810001,1075.6242190162445,945.2306362752512,853.3393110453408,1019.8128616880026,537.9631434328631
1533044999.285,1056.9869362717257,951.7943178135465,858.6755398329276,988.9891524914196,688.2306649569518
1533044999.289,1088.9396796546632,949.3333573391908,865.2424300800336,1027.5201042162487,967.7280087928192
1533044999.292,1179.4597296376235,990.7689076134577,868.936936305844,1078.8982137936218,1066.9030958050926
1533044999.296,1187.447915483358,913.2305882635363,861.9589849564807,1117.4291655184509,748.3339805825243
1533044999.3,1110.2378734522322,859.0768547525596,858.2653193464213,1109.7219229902046,649.1588935702509
1533044999.304,1094.2615017607634,920.2051300517326,858.6755398329276,1068.6236440614275,883.5772119435794
1533044999.3079998,1168.810632738839,902.1533254114004,858.6755398329276,1040.3672620687928,1000.7863711302437
1533044999.312,1200.7633761217767,908.3078271098148,864.0117686205145,1060.9164015331814,751.3437625938817
1533044999.316,1168.810632738839,902.5641856613014,861.1385439834679,1104.5872685823083,778.3887158820297
1533044999.32,1134.2024309894355,860.3077550922425,857.8542582441638,1035.2273467444948,622.1139402821029
1533044999.324,1043.676928319891,910.3587675392796,868.1156547170802,947.8908735626425,652.16252060817
1533044999.3279998,1062.3142110644098,899.6923649370447,868.1156547170802,991.5564796953679,889.5906209928559
1533044999.332,1142.1851641485857,918.1533494172578,862.7802665452444,1030.087431420197,613.0969041949074
1533044999.335,1102.2496876064977,950.5642576788737,864.0117686205145,1001.8310494275622,622.1139402821029
1533044999.339,1107.576962399182,923.4869708208803,860.3172623947041,1040.3672620687928,883.5772119435794
1533044999.343,1075.6242190162445,929.2306122693938,857.8542582441638,1027.5201042162487,1268.2630518409965
1533044999.3470001,1049.0042031125752,900.5124050268265,861.1385439834679,991.5564796953679,1087.9407950174025
1533044999.351,1064.97512211746,937.8460744421639,861.9589849564807,1030.087431420197,1000.7863711302437
1533044999.355,1051.6651141656253,943.1796958457863,866.4739321553037,1073.7582984693238,970.7316358307382
1533044999.359,1067.63603317051,870.1541176046956,870.9888793541269,1081.4655409975699,414.7405751969225
1533044999.363,1054.3260252186753,856.6150540731938,857.8542582441638,1073.7582984693238,543.9703975087012
1533044999.367,1078.2905827558786,882.0514205466134,854.5708131206109,1084.032868201518,985.7620809672101
1533044999.371,1115.5651482449166,923.8969908657713,861.1385439834679,1099.4473532580105,649.1588935702509
1533044999.375,1142.1851641485857,943.1796958457863,864.0117686205145,1166.234686975474,306.5484520974537
1533044999.3779998,1179.4597296376235,873.8459784187341,861.5487644699742,1145.6855475110856,643.1516394944128
1533044999.3820002,1142.1851641485857,858.2559744577677,856.6235967846447,1089.1727835258162,697.2477010441473
1533044999.3860002,1123.5478814040669,882.0514205466134,858.6755398329276,1073.7582984693238,372.66517677230263
1533044999.39,1184.787004430308,926.768811590028,866.8849932575612,1125.136408046697,667.1929657446419
1533044999.394,1208.746109280927,955.0769987877042,865.2424300800336,1179.0818448280181,808.4434511815351
1533044999.3979998,1142.1851641485857,902.9742057061923,864.4219891070209,1125.136408046697,423.75761128411796
1533044999.4020002,1123.5478814040669,890.2560224694826,868.5267158193377,1102.0146804619585,459.81960065946146
1533044999.4060001,1139.5242530955356,861.1277951820244,862.369205442987,1114.8618383145026,838.4981864810405
1533044999.41,1171.4715437918892,861.1277951820244,865.2424300800336,1145.6855475110856,916.6355742810039
1533044999.414,1248.687038509599,946.871556659825,877.9668307034904,1140.550893103189,820.4641143066495
1533044999.417,1275.3070544132681,877.5386794377828,873.0416630181608,1119.996492722399,769.3716797948342
1533044999.421,1198.0970123821423,819.6922449077575,864.4219891070209,1081.4655409975699,727.2962813702143
1533044999.425,1115.5651482449166,875.486898803308,863.1904870317508,1037.794673948443,408.73332112108443
1533044999.429,1131.5360672498011,890.2560224694826,869.7582178946078,1053.2091590049351,471.84026378457594
1533044999.4329998,1142.1851641485857,919.7951100068417,870.1684383811141,1030.087431420197,865.5431397691885
1533044999.437,1163.488810632739,907.4869468150229,864.0117686205145,1081.4655409975699,1148.0502656164133
1533044999.441,1118.2260592979667,865.230516245964,861.5487644699742,1073.7582984693238,1060.8958417292545
1533044999.445,1072.9633079631944,833.6413284841501,853.3393110453408,1006.9709647518602,477.85367283385233
1533044999.449,1104.910598659548,850.4613925797895,855.3920947093746,1024.9527770123004,408.73332112108443
1533044999.4529998,1171.4715437918892,893.5387034436402,864.8322095935273,1089.1727835258162,898.6015021066129
1533044999.457,1187.447915483358,838.5640896378717,854.9810336071172,1073.7582984693238,898.6015021066129
1533044999.46,1110.2378734522322,798.7694597481785,852.1078089700706,1017.2455344840544,525.9424803077487
1533044999.464,1027.7005566284222,859.8977350473516,864.8322095935273,1022.3854498083523,658.1759296574464
1533044999.468,1062.3142110644098,868.1023369702208,859.9070419081978,1004.4036375479119,955.7073456677047
1533044999.4720001,1128.875156196751,878.7687395724557,857.4440377576575,1006.9709647518602,892.5942480307749
1533044999.476,1128.875156196751,851.6922929194724,859.085760319434,1035.2273467444948,916.6355742810039
1533044999.48,1096.9278655003975,827.8976870356367,858.6755398329276,1022.3854498083523,1181.1086279538376
1533044999.484,1126.214245143701,821.7431853372223,857.4440377576575,1030.087431420197,1262.2496427917201
1533044999.488,1150.17334999432,789.3331172806164,857.4440377576575,1058.3490743292332,1211.163363253343
1533044999.492,1174.1379075315233,818.0513245231837,864.8322095935273,1102.0146804619585,880.5735849056604
1533044999.496,1198.0970123821423,827.4868267857357,872.220381429397,1145.6855475110856,1012.8070342553581
1533044999.4989998,1184.787004430308,789.3331172806164,875.50382655295,1132.843650574943,1208.1535812419856
1533044999.5029998,1126.214245143701,761.0257702879503,862.7802665452444,1055.7764862088834,853.522476644074
1533044999.5070002,1099.5887765534476,768.8203521659285,861.9589849564807,1053.2091590049351,820.4641143066495
1533044999.5110002,1174.1379075315233,843.0768307467022,877.1463897304776,1099.4473532580105,1009.8034072174391
1533044999.515,1222.0615699193456,841.8459304070193,870.1684383811141,1104.5872685823083,988.7657080051291
1533044999.519,1166.149721685789,798.7694597481785,863.6007075182571,1117.4291655184509,919.6392013189229
1533044999.5229998,1112.8987845052823,806.5640416261568,867.2952137440675,1078.8982137936218,784.402124931306
1533044999.5270002,1126.214245143701,797.1276991585947,866.0637116687974,1030.087431420197,1105.9748671917935
1533044999.5310001,1115.5651482449166,813.1277231644522,864.8322095935273,1032.6600195405467,1117.995530316908
1533044999.535,1099.5887765534476,830.3586475099925,864.4219891070209,1063.4837287371295,718.2854002564573
1533044999.539,1152.8397137339543,769.6412324607204,861.1385439834679,1107.1545957862566,655.1723026195274
1533044999.542,1120.8869703510168,762.666690672524,858.6755398329276,1045.501916476689,354.6311045979117
1533044999.546,1054.3260252186753,777.8458343835896,861.1385439834679,988.9891524914196,805.4398241436161
1533044999.55,1110.2378734522322,799.1794797930695,863.1904870317508,1017.2455344840544,1352.4138486902364
1533044999.554,1139.5242530955356,846.3586715158499,864.0117686205145,1037.794673948443,934.6696464553947
1533044999.5579998,1088.9396796546632,780.3076350629553,861.5487644699742,1081.4655409975699,763.3644257189961
1533044999.562,1033.0278314211064,775.7948939541249,859.4968214216914,1035.2273467444948,916.6355742810039
1533044999.566,1014.3905486765875,825.4358863562709,859.4968214216914,976.1472555552772,829.481150393845
1533044999.57,1088.9396796546632,834.4613685739321,870.9888793541269,1001.8310494275622,1015.8106612932771
1533044999.574,1158.1615358400545,869.7432573547945,874.273165093431,1060.9164015331814,1340.3931855651217
1533044999.5779998,1128.875156196751,847.9995919004238,862.7802665452444,1078.8982137936218,1148.0502656164133
1533044999.582,1083.6124048619788,815.1795037989269,862.369205442987,1050.6418318009871,940.6769005312328
1533044999.585,1041.016017266841,792.6149580497641,854.5708131206109,986.4218252874715,1039.8581425169446
1533044999.589,1064.97512211746,794.255878434338,847.5928617712474,968.4400130270311,1078.923758930207
1533044999.593,1123.5478814040669,820.9231452474404,856.6235967846447,1035.2273467444948,1060.8958417292545
1533044999.5970001,1126.214245143701,765.5385113967808,852.518870072328,1076.3308865896736,745.3303535446053
1533044999.601,1096.9278655003975,760.6149100380493,852.518870072328,1032.6600195405467,727.2962813702143
1533044999.605,1072.9633079631944,825.4358863562709,864.8322095935273,1048.0692436806373,1169.0879648287232
1533044999.609,1107.576962399182,811.8976630297792,854.1605926341044,1048.0692436806373,1099.961458142517
1533044999.613,1104.910598659548,834.871388618823,848.4141433600112,1019.8128616880026,958.7109727056237
1533044999.617,1094.2615017607634,847.9995919004238,854.9810336071172,1053.2091590049351,1084.9371679794833
1533044999.621,1083.6124048619788,831.5895478496753,857.0338172711511,1073.7582984693238,853.522476644074
1533044999.6239998,1056.9869362717257,803.2822008570091,849.6456454352814,1032.6600195405467,465.83300970873785
1533044999.6279998,1110.2378734522322,786.4612965563598,844.3094166476944,965.8674249066813,477.85367283385233
1533044999.6320002,1134.2024309894355,839.3841297276535,852.518870072328,983.8492371671218,360.6445136471881
1533044999.6360002,1126.214245143701,841.0258903172374,861.1385439834679,1032.6600195405467,414.7405751969225
1533044999.64,1131.5360672498011,793.0258182996652,860.3172623947041,1022.3854498083523,631.1248213958601
1533044999.644,1104.910598659548,786.0512765114688,851.6975884835642,960.7327704987849,640.1418574830556
1533044999.6479998,1139.5242530955356,806.9740616710477,856.2125356823874,988.9891524914196,739.3169444953288
1533044999.6520002,1171.4715437918892,863.9996159062812,866.8849932575612,1086.605456321868,784.402124931306
1533044999.6560001,1131.5360672498011,831.1795278047844,866.8849932575612,1119.996492722399,694.2379190327899
1533044999.66,1120.8869703510168,764.7176311019889,861.9589849564807,1048.0692436806373,766.3680527569152
1533044999.664,1128.875156196751,829.1277471703096,868.5267158193377,1022.3854498083523,883.5772119435794
1533044999.667,1131.5360672498011,824.204986016588,866.8849932575612,1055.7764862088834,733.3096904194907
1533044999.671,1134.2024309894355,845.9486514709589,873.4518835046672,1040.3672620687928,877.563802894303
1533044999.675,1136.8633420424856,871.3841777393684,872.220381429397,1066.0510559410777,1178.1050009159187
1533044999.679,1136.8633420424856,827.4868267857357,864.4219891070209,1086.605456321868,868.552921780546
1533044999.6829998,1099.5887765534476,798.7694597481785,864.4219891070209,1053.2091590049351,393.70287598461255
1533044999.687,1086.273315915029,764.7176311019889,861.9589849564807,1066.0510559410777,393.70287598461255
1533044999.691,1102.2496876064977,842.6668107018112,866.4739321553037,1055.7764862088834,1057.886059717897
1533044999.695,1118.2260592979667,884.1023609760782,875.0936060664437,1048.0692436806373,1193.1292910789523
1533044999.699,1152.8397137339543,793.845858389447,867.7054342305739,1055.7764862088834,1030.841106429749
1533044999.7029998,1102.2496876064977,816.8204241835008,866.8849932575612,1006.9709647518602,1604.8662392379556
1533044999.707,1043.676928319891,834.0513485290411,869.3471567923503,1012.1108800761581,1283.28734200403
1533044999.71,1083.6124048619788,836.5123090033968,870.5786588676206,1006.9709647518602,955.7073456677047
1533044999.714,1112.8987845052823,860.7177751371335,879.6085532652668,1019.8128616880026,712.2719912071808
1533044999.718,1099.5887765534476,839.3841297276535,876.3251081417138,1048.0692436806373,577.0287598461257
1533044999.7220001,1059.6533000113598,820.1022649526484,864.8322095935273,986.4218252874715,718.2854002564573
1533044999.726,1067.63603317051,783.9994958769939,858.2653193464213,973.5746674349275,790.4093790071441
1533044999.73,1086.273315915029,820.1022649526484,861.5487644699742,1024.9527770123004,904.6149111558893
1533044999.734,1070.3023969101444,839.7949899775546,861.5487644699742,1022.3854498083523,811.447078219454
1533044999.738,1051.6651141656253,828.3077070805276,857.8542582441638,999.263722223614,901.6112841179703
1533044999.742,1075.6242190162445,848.8204721952156,860.3172623947041,1030.087431420197,973.7352628686573
1533044999.746,1070.3023969101444,822.5640656320143,861.1385439834679,1001.8310494275622,1000.7863711302437
1533044999.7489998,1091.6005907077133,801.2304202225343,857.8542582441638,996.6963950196658,808.4434511815351
1533044999.7529998,1115.5651482449166,857.8459544128767,861.5487644699742,1045.501916476689,802.4300421322587
1533044999.7570002,1062.3142110644098,799.9995198828514,861.9589849564807,1014.6782072801062,811.447078219454
1533044999.7610002,1035.6887424741565,769.2303722108195,855.802315195881,922.201818773956,559.0008426451731
1533044999.765,985.104169033284,835.282248868724,847.1826412847411,875.9636245208808,712.2719912071808
1533044999.769,1046.337839372941,831.5895478496753,848.0039228735048,940.1836310343964,853.522476644074
1533044999.7729998,1187.447915483358,869.3332373099037,862.7802665452444,1019.8128616880026,799.4264150943396
1533044999.7770002,1150.17334999432,865.230516245964,859.4968214216914,1001.8310494275622,1181.1086279538376
1533044999.7810001,1056.9869362717257,822.1540455871233,848.4141433600112,1006.9709647518602,1340.3931855651217
1533044999.785,1054.3260252186753,802.0513005173262,849.6456454352814,1022.3854498083523,1217.1706173291811
1533044999.789,1075.6242190162445,803.2822008570091,848.8243638465176,978.7145827592254,859.5358856933505
1533044999.792,1115.5651482449166,879.5896198672476,855.802315195881,971.0073402309793,613.0969041949074
1533044999.796,1110.2378734522322,854.97413368862,856.6235967846447,999.263722223614,892.5942480307749
1533044999.8,1025.039645575372,793.435838344556,848.8243638465176,973.5746674349275,988.7657080051291
1533044999.804,998.4141769851187,841.4359103621283,854.5708131206109,976.1472555552772,961.7145997435427
1533044999.8079998,1035.6887424741565,839.3841297276535,849.2345843330239,965.8674249066813,958.7109727056237
1533044999.812,1099.5887765534476,868.9232172650127,857.4440377576575,973.5746674349275,841.5018135189595
1533044999.816,1128.875156196751,871.7950379892694,859.9070419081978,1066.0510559410777,913.6319472430848
1533044999.82,1099.5887765534476,841.4359103621283,845.5409187229645,1030.087431420197,793.4191610185015
1533044999.824,1096.9278655003975,836.1022889585058,853.3393110453408,963.3000977027332,589.0494229712401
1533044999.8279998,1083.6124048619788,801.2304202225343,855.802315195881,996.6963950196658,658.1759296574464
1533044999.831,1104.910598659548,849.2304922401066,852.518870072328,1022.3854498083523,961.7145997435427
1533044999.835,1128.875156196751,872.2050580341603,852.518870072328,1058.3490743292332,1042.8617695548635
1533044999.839,1096.9278655003975,795.8976390239218,850.4660864082941,1037.794673948443,880.5735849056604
1533044999.843,1054.3260252186753,819.6922449077575,854.1605926341044,1006.9709647518602,700.2513280820663
1533044999.8470001,1080.9514938089287,845.5386314260679,857.0338172711511,1071.1909712653758,817.4604872687305
1533044999.851,1142.1851641485857,850.0513725348985,857.4440377576575,1127.7037352506452,1160.0709287415277
1533044999.855,1190.108826536408,846.7686915607409,856.6235967846447,1109.7219229902046,736.3133174574098
1533044999.859,1190.108826536408,829.9486274651015,863.1904870317508,1112.2945111105544,471.84026378457594
1533044999.863,1176.7988185845734,842.2559504519103,859.9070419081978,1102.0146804619585,937.6732734933138
1533044999.867,1142.1851641485857,810.6667626900963,847.5928617712474,1060.9164015331814,586.0457959333211
1533044999.871,1150.17334999432,812.3076830746702,845.951139209471,1060.9164015331814,174.315002747756
1533044999.8739998,1171.4715437918892,834.871388618823,847.5928617712474,1073.7582984693238,877.563802894303
1533044999.8779998,1142.1851641485857,825.8459064011619,848.4141433600112,1073.7582984693238,820.4641143066495
1533044999.8820002,1083.6124048619788,850.8714126246804,851.6975884835642,1024.9527770123004,913.6319472430848
1533044999.8860002,1059.6533000113598,835.282248868724,852.9290905588343,965.8674249066813,1448.5853086645907
1533044999.89,1131.5360672498011,827.0768067408447,861.1385439834679,976.1472555552772,1075.920131892288
1533044999.894,1160.8224468931046,854.5641136437291,850.8771475105515,1009.5382919558083,817.4604872687305
1533044999.8979998,1115.5651482449166,791.7949179599823,835.6897427365545,1009.5382919558083,841.5018135189595
1533044999.9020002,1078.2905827558786,804.102240946791,850.4660864082941,1019.8128616880026,916.6355742810039
1533044999.9060001,1088.9396796546632,852.5123330092542,858.6755398329276,1014.6782072801062,1063.8994687671734
1533044999.91,1107.576962399182,817.2304442283918,850.4660864082941,1006.9709647518602,904.6149111558893
1533044999.914,1144.8515278882198,845.5386314260679,850.8771475105515,1040.3672620687928,766.3680527569152
1533044999.917,1147.51243894127,843.8977110414942,850.0558659217877,1091.7401107297642,1093.9542040666788
1533044999.921,1110.2378734522322,796.3076590688128,850.8771475105515,1096.8800260540622,838.4981864810405
1533044999.925,1083.6124048619788,789.7431373255074,847.5928617712474,1060.9164015331814,847.5152225682359
1533044999.929,1088.9396796546632,811.0767827349873,845.5409187229645,1048.0692436806373,1145.040483605056
1533044999.9329998,1155.5006247870044,877.9486994826738,855.3920947093746,1040.3672620687928,931.6598644440373
1533044999.937,1179.4597296376235,826.6667866959538,839.7944694488713,1050.6418318009871,760.3546437076387
1533044999.941,1139.5242530955356,786.0512765114688,840.2046899353777,1027.5201042162487,838.4981864810405
1533044999.945,1102.2496876064977,849.2304922401066,857.4440377576575,1050.6418318009871,862.5395127312695
1533044999.949,1144.8515278882198,817.2304442283918,850.0558659217877,1099.4473532580105,766.3680527569152
1533044999.9529998,1190.108826536408,843.0768307467022,856.2125356823874,1094.312698850114,571.0215057702876
1533044999.956,1208.746109280927,873.0250981239423,854.9810336071172,1084.032868201518,826.477523355926
1533044999.96,1192.7751902760422,856.6150540731938,852.518870072328,1086.605456321868,1018.8204433046345
1533044999.964,1096.9278655003975,843.8977110414942,852.9290905588343,1032.6600195405467,1027.83747939183
1533044999.968,1102.2496876064977,785.2303962166769,843.4889756746817,1014.6782072801062,1006.7997801795201
1533044999.9720001,1182.1260933772578,832.4104281444672,856.6235967846447,1076.3308865896736,769.3716797948342
1533044999.976,1192.7751902760422,861.9486754768163,860.7274828812104,1132.843650574943,775.3850888441107
1533044999.98,1139.5242530955356,844.307731086385,850.8771475105515,1104.5872685823083,1057.886059717897
1533044999.984,1099.5887765534476,844.717751131276,849.6456454352814,1084.032868201518,949.6939366184283
1533044999.988,1128.875156196751,806.9740616710477,847.1826412847411,1066.0510559410777,688.2306649569518
1533044999.992,1168.810632738839,838.1540695929807,852.1078089700706,1071.1909712653758,357.6408866092691
1533044999.996,1176.7988185845734,848.4104521503247,854.9810336071172,1135.4109777788913,516.9254442205532
1533044999.9989998,1147.51243894127,819.6922449077575,855.802315195881,1150.8254628353834,796.4227880564206
1533045000.0029998,1102.2496876064977,831.5895478496753,862.369205442987,1063.4837287371295,682.2172559076754
1533045000.0070002,1118.2260592979667,808.2049620107306,860.7274828812104,1035.2273467444948,757.3510166697197
1533045000.0110002,1174.1379075315233,841.0258903172374,852.1078089700706,1081.4655409975699,937.6732734933138
1533045000.015,1224.7224809723957,850.4613925797895,851.6975884835642,1148.2528747150336,607.0834951456311
1533045000.019,1200.7633761217767,775.7948939541249,852.1078089700706,1135.4109777788913,438.7819014471515
1533045000.0229998,1155.5006247870044,798.3585994982776,854.5708131206109,1094.312698850114,1030.841106429749
1533045000.0270002,1152.8397137339543,855.384153733511,856.6235967846447,1094.312698850114,886.5808389814985
1533045000.0310001,1182.1260933772578,876.3077790980999,863.6007075182571,1084.032868201518,724.2926543322953
1533045000.035,1243.3597637169146,894.3587435334222,868.5267158193377,1119.996492722399,868.552921780546
1533045000.039,1206.0851982278768,864.4104761561821,855.3920947093746,1132.843650574943,793.4191610185015
1533045000.042,1144.8515278882198,858.2559744577677,854.1605926341044,1109.7219229902046,838.4981864810405
1533045000.046,1155.5006247870044,826.2559264460529,859.085760319434,1104.5872685823083,700.2513280820663
1533045000.05,1179.4597296376235,840.2050100224454,865.2424300800336,1107.1545957862566,694.2379190327899
1533045000.054,1192.7751902760422,884.1023609760782,863.1904870317508,1122.5690808427487,775.3850888441107
1533045000.0579998,1187.447915483358,868.5123570151117,859.9070419081978,1137.9783049828393,868.552921780546
1533045000.062,1171.4715437918892,836.1022889585058,861.9589849564807,1137.9783049828393,772.3814618061916
1533045000.066,1112.8987845052823,809.8458823953044,857.8542582441638,1084.032868201518,841.5018135189595
1533045000.07,1110.2378734522322,841.8459304070193,862.369205442987,1071.1909712653758,1298.3177871405019
1533045000.074,1142.1851641485857,889.4359823797006,871.8101609428907,1089.1727835258162,961.7145997435427
1533045000.0779998,1150.17334999432,863.9996159062812,868.1156547170802,1130.2710624545932,522.9326982963913
1533045000.081,1142.1851641485857,861.5386554319253,869.3471567923503,1130.2710624545932,673.2002198204799
1533045000.085,1096.9278655003975,853.3332133040462,870.1684383811141,1117.4291655184509,841.5018135189595
1533045000.089,1115.5651482449166,842.2559504519103,863.6007075182571,1114.8618383145026,1003.7899981681627
1533045000.093,1168.810632738839,874.2559984636251,868.1156547170802,1114.8618383145026,796.4227880564206
1533045000.0970001,1174.1379075315233,852.1023129643633,864.8322095935273,1099.4473532580105,874.5601758563839
1533045000.101,1176.7988185845734,843.8977110414942,861.9589849564807,1058.3490743292332,910.6283202051658
1533045000.105,1163.488810632739,839.3841297276535,862.369205442987,1084.032868201518,751.3437625938817
1533045000.109,1142.1851641485857,803.6922209019001,856.6235967846447,1037.794673948443,847.5152225682359
1533045000.113,1195.4361013290923,853.3332133040462,865.2424300800336,1055.7764862088834,1102.9712401538743
1533045000.117,1230.0497557650801,862.7687155665983,867.7054342305739,1150.8254628353834,1322.359113390731
1533045000.121,1136.8633420424856,837.3331892981888,863.6007075182571,1112.2945111105544,1063.8994687671734
1533045000.1239998,1096.9278655003975,852.9231932591553,869.3471567923503,1086.605456321868,733.3096904194907
1533045000.1279998,1150.17334999432,847.1795518106418,863.6007075182571,1089.1727835258162,739.3169444953288
1533045000.1320002,1155.5006247870044,893.5387034436402,867.7054342305739,1076.3308865896736,1087.9407950174025
1533045000.1360002,1163.488810632739,879.5896198672476,862.7802665452444,1081.4655409975699,1283.28734200403
1533045000.14,1182.1260933772578,782.7694357423211,851.2873679970578,1096.8800260540622,889.5906209928559
1533045000.144,1094.2615017607634,829.9486274651015,861.1385439834679,1037.794673948443,709.2683641692618
1533045000.1479998,1088.9396796546632,868.9232172650127,862.7802665452444,1068.6236440614275,691.2342919948709
1533045000.1520002,1182.1260933772578,884.9232412708701,862.7802665452444,1155.96011724328,805.4398241436161
1533045000.1560001,1248.687038509599,863.9996159062812,861.5487644699742,1145.6855475110856,901.6112841179703
1533045000.16,1208.746109280927,803.2822008570091,852.518870072328,1091.7401107297642,754.3473896318008
1533045000.1629999,1144.8515278882198,848.4104521503247,856.2125356823874,1089.1727835258162,540.9667704707822
1533045000.167,1158.1615358400545,858.6668347076687,857.4440377576575,1137.9783049828393,540.9667704707822
1533045000.171,1192.7751902760422,864.8204962010731,854.1605926341044,1104.5872685823083,534.9533614215057
1533045000.175,1216.7342951266614,880.4105001620395,860.3172623947041,1130.2710624545932,625.117567320022
1533045000.179,1166.149721685789,864.4104761561821,862.369205442987,1204.7708996167046,913.6319472430848
1533045000.1829998,1123.5478814040669,864.4104761561821,855.3920947093746,1109.7219229902046,772.3814618061916
1533045000.187,1088.9396796546632,829.5386074202105,848.0039228735048,996.6963950196658,607.0834951456311
1533045000.191,1142.1851641485857,851.2822728745814,856.2125356823874,1084.032868201518,904.6149111558893
1533045000.195,1251.347949562649,879.5896198672476,861.9589849564807,1148.2528747150336,874.5601758563839
1533045000.199,1166.149721685789,852.9231932591553,854.1605926341044,1040.3672620687928,790.4093790071441
1533045000.2029998,1086.273315915029,834.871388618823,845.951139209471,994.1290678157176,880.5735849056604
1533045000.206,1083.6124048619788,817.6413044782927,844.7196371342008,1009.5382919558083,907.6185381938084
1533045000.21,1120.8869703510168,848.4104521503247,854.1605926341044,1009.5382919558083,1163.0745557794469
1533045000.214,1160.8224468931046,884.1023609760782,862.369205442987,1050.6418318009871,580.0385418574831
1533045000.218,1126.214245143701,887.3842017452258,859.085760319434,1084.032868201518,459.81960065946146
1533045000.2220001,1094.2615017607634,886.154141610553,854.1605926341044,1024.9527770123004,772.3814618061916
1533045000.226,1059.6533000113598,849.2304922401066,850.8771475105515,1014.6782072801062,583.0421688954021
1533045000.23,1110.2378734522322,838.1540695929807,860.3172623947041,1055.7764862088834,643.1516394944128
1533045000.234,1176.7988185845734,887.3842017452258,866.4739321553037,1073.7582984693238,874.5601758563839
1533045000.238,1147.51243894127,830.7695077598934,855.802315195881,1086.605456321868,664.1831837332845
1533045000.242,1080.9514938089287,824.615006061479,855.3920947093746,1058.3490743292332,748.3339805825243
1533045000.246,1059.6533000113598,851.6922929194724,854.9810336071172,1058.3490743292332,697.2477010441473
1533045000.2489998,1083.6124048619788,798.7694597481785,849.2345843330239,1060.9164015331814,640.1418574830556
1533045000.2529998,1104.910598659548,873.4359583738432,858.6755398329276,1086.605456321868,1042.8617695548635
1533045000.2570002,1131.5360672498011,854.1540935988381,850.0558659217877,1102.0146804619585,874.5601758563839
1533045000.2610002,1086.273315915029,811.4868027798783,842.6676940859179,1053.2091590049351,700.2513280820663
1533045000.265,1038.3496535272066,860.7177751371335,856.2125356823874,1032.6600195405467,592.0592049825975
1533045000.269,1099.5887765534476,838.9741096827626,850.8771475105515,1040.3672620687928,327.5861513097637
1533045000.2729998,1150.17334999432,872.6150780790513,852.1078089700706,1076.3308865896736,601.076241069793
1533045000.2770002,1147.51243894127,883.6923409311872,856.6235967846447,1112.2945111105544,874.5601758563839
1533045000.2810001,1102.2496876064977,869.3332373099037,851.6975884835642,1091.7401107297642,1012.8070342553581
1533045000.285,1072.9633079631944,856.2050340283029,854.9810336071172,1099.4473532580105,1120.9991573548268
1533045000.2879999,1062.3142110644098,807.3849219209487,845.951139209471,1071.1909712653758,967.7280087928192
1533045000.292,1094.2615017607634,832.4104281444672,848.8243638465176,1027.5201042162487,784.402124931306
1533045000.296,1134.2024309894355,845.5386314260679,850.4660864082941,1099.4473532580105,880.5735849056604
1533045000.3,1131.5360672498011,841.0258903172374,846.3613596959773,1114.8618383145026,760.3546437076387
1533045000.304,1099.5887765534476,867.6923169253298,854.9810336071172,1086.605456321868,808.4434511815351
1533045000.3079998,1107.576962399182,837.7432093430797,851.2873679970578,1112.2945111105544,1051.878805642059
1533045000.312,1200.7633761217767,868.1023369702208,854.5708131206109,1112.2945111105544,970.7316358307382
1533045000.316,1243.3597637169146,860.3077550922425,854.9810336071172,1125.136408046697,994.7729620809672
1533045000.32,1166.149721685789,811.4868027798783,845.951139209471,1132.843650574943,958.7109727056237
1533045000.324,1102.2496876064977,848.4104521503247,841.0259715241415,1068.6236440614275,871.5565488184649
1533045000.3279998,1075.6242190162445,851.2822728745814,841.8464124971541,1017.2455344840544,1358.4211027660745
1533045000.331,1070.3023969101444,857.4359343679857,848.0039228735048,1032.6600195405467,1298.3177871405019
1533045000.335,1158.1615358400545,865.6405362908549,848.0039228735048,1086.605456321868,1093.9542040666788
1533045000.339,1158.1615358400545,837.7432093430797,841.8464124971541,1099.4473532580105,919.6392013189229
1533045000.343,1099.5887765534476,815.9995438887089,852.1078089700706,1081.4655409975699,592.0592049825975
1533045000.3470001,1110.2378734522322,789.7431373255074,848.4141433600112,1048.0692436806373,679.2136288697563
1533045000.351,1126.214245143701,828.3077070805276,838.9731878601075,976.1472555552772,931.6598644440373
1533045000.355,1166.149721685789,880.8205202069305,849.2345843330239,1019.8128616880026,943.6866825425902
1533045000.359,1171.4715437918892,802.8713406071081,848.4141433600112,1081.4655409975699,1105.9748671917935
1533045000.363,1131.5360672498011,798.3585994982776,849.6456454352814,1040.3672620687928,1133.0198204799415
1533045000.367,1078.2905827558786,859.8977350473516,857.0338172711511,1037.794673948443,1036.8483605055872
1533045000.371,1086.273315915029,848.8204721952156,850.4660864082941,1032.6600195405467,964.7243817549002
1533045000.3739998,1168.810632738839,863.5895958613902,856.6235967846447,1066.0510559410777,868.552921780546
1533045000.3779998,1168.810632738839,848.8204721952156,857.4440377576575,1086.605456321868,691.2342919948709
1533045000.3820002,1120.8869703510168,845.9486514709589,852.9290905588343,1104.5872685823083,540.9667704707822
1533045000.3860002,1112.8987845052823,826.2559264460529,855.802315195881,1102.0146804619585,537.9631434328631
1533045000.39,1139.5242530955356,798.3585994982776,849.2345843330239,1081.4655409975699,679.2136288697563
1533045000.394,1192.7751902760422,846.7686915607409,852.518870072328,1148.2528747150336,853.522476644074
1533045000.3979998,1214.0733840736114,833.6413284841501,853.7503721475981,1150.8254628353834,940.6769005312328
1533045000.4020002,1171.4715437918892,809.4358623504135,853.7503721475981,1078.8982137936218,667.1929657446419
1533045000.4060001,1115.5651482449166,863.1795758164992,866.0637116687974,1089.1727835258162,895.597875068694
1533045000.41,1144.8515278882198,870.1541176046956,863.6007075182571,1140.550893103189,958.7109727056237
1533045000.4129999,1171.4715437918892,883.2823208862962,861.9589849564807,1150.8254628353834,601.076241069793
1533045000.417,1144.8515278882198,895.589643873105,864.4219891070209,1140.550893103189,937.6732734933138
1533045000.421,1142.1851641485857,879.9996399121386,868.936936305844,1158.5327053636295,1066.9030958050926
1533045000.425,1131.5360672498011,853.3332133040462,866.0637116687974,1150.8254628353834,949.6939366184283
1533045000.429,1110.2378734522322,842.2559504519103,852.1078089700706,1086.605456321868,907.6185381938084
1533045000.4329998,1187.447915483358,885.3332613157611,864.8322095935273,1076.3308865896736,1051.878805642059
1533045000.437,1222.0615699193456,843.0768307467022,868.1156547170802,1109.7219229902046,1163.0745557794469
1533045000.441,1150.17334999432,823.3841057217961,859.4968214216914,1063.4837287371295,1130.0161934420223
1533045000.445,1075.6242190162445,870.1541176046956,866.0637116687974,1042.934589272741,985.7620809672101
1533045000.449,1070.3023969101444,845.5386314260679,865.6534911822911,1068.6236440614275,694.2379190327899
1533045000.4529998,1123.5478814040669,894.3587435334222,867.2952137440675,1078.8982137936218,1319.3554863528118
1533045000.456,1163.488810632739,871.7950379892694,864.4219891070209,1104.5872685823083,1301.321414178421
1533045000.46,1131.5360672498011,837.3331892981888,868.936936305844,1104.5872685823083,1018.8204433046345
1533045000.464,1086.273315915029,854.97413368862,869.3471567923503,1096.8800260540622,919.6392013189229
1533045000.468,1072.9633079631944,822.5640656320143,858.6755398329276,1068.6236440614275,411.7369481590035
1533045000.4720001,1139.5242530955356,869.3332373099037,867.7054342305739,1104.5872685823083,604.0798681077121
1533045000.476,1219.4006588662955,866.4614165856469,865.6534911822911,1186.7890873562642,559.0008426451731
1533045000.48,1192.7751902760422,848.4104521503247,864.0117686205145,1186.7890873562642,447.798937534347
1533045000.484,1123.5478814040669,853.7432333489371,861.9589849564807,1137.9783049828393,970.7316358307382
1533045000.488,1131.5360672498011,834.0513485290411,854.5708131206109,1132.843650574943,1304.32504121634
1533045000.492,1216.7342951266614,882.0514205466134,861.1385439834679,1161.1000325675777,1205.1499542040667
1533045000.495,1272.646143360218,883.6923409311872,863.6007075182571,1181.6491720319664,1078.923758930207
1533045000.4989998,1243.3597637169146,821.3331652923313,859.4968214216914,1166.234686975474,1108.9784942297124
1533045000.5029998,1206.0851982278768,859.8977350473516,862.7802665452444,1140.550893103189,910.6283202051658
1533045000.5070002,1174.1379075315233,874.2559984636251,865.2424300800336,1132.843650574943,904.6149111558893
1533045000.5110002,1158.1615358400545,873.0250981239423,861.9589849564807,1130.2710624545932,1139.0332295292178
1533045000.515,1222.0615699193456,879.5896198672476,858.6755398329276,1135.4109777788913,1027.83747939183
1533045000.519,1198.0970123821423,874.6668587135262,855.802315195881,1099.4473532580105,916.6355742810039
1533045000.5229998,1115.5651482449166,889.4359823797006,855.3920947093746,1055.7764862088834,907.6185381938084
1533045000.5270002,1070.3023969101444,841.0258903172374,851.6975884835642,1053.2091590049351,718.2854002564573
1533045000.5310001,1102.2496876064977,821.3331652923313,854.9810336071172,1068.6236440614275,964.7243817549002
1533045000.535,1160.8224468931046,864.4104761561821,866.0637116687974,1127.7037352506452,1030.841106429749
1533045000.5379999,1134.2024309894355,839.7949899775546,857.4440377576575,1102.0146804619585,970.7316358307382
1533045000.542,1078.2905827558786,843.0768307467022,850.4660864082941,1009.5382919558083,634.1346034072175
1533045000.546,1038.3496535272066,873.0250981239423,850.0558659217877,978.7145827592254,423.75761128411796
1533045000.55,1078.2905827558786,858.6668347076687,852.518870072328,994.1290678157176,562.0044696830921
1533045000.554,1166.149721685789,895.1796238282141,865.2424300800336,1076.3308865896736,796.4227880564206
1533045000.5579998,1192.7751902760422,884.9232412708701,870.5786588676206,1199.6309842924068,898.6015021066129
1533045000.562,1259.3361354083836,864.8204962010731,869.3471567923503,1297.247288122855,772.3814618061916
1533045000.566,1147.51243894127,853.7432333489371,856.6235967846447,1122.5690808427487,727.2962813702143
1533045000.57,1054.3260252186753,839.7949899775546,862.369205442987,1001.8310494275622,886.5808389814985
1533045000.574,1142.1851641485857,869.3332373099037,862.369205442987,1063.4837287371295,940.6769005312328
1533045000.5779998,1134.2024309894355,877.1278191878819,852.1078089700706,1032.6600195405467,862.5395127312695
1533045000.581,1160.8224468931046,884.9232412708701,853.7503721475981,1040.3672620687928,1111.9821212676313
1533045000.585,1144.8515278882198,887.7950619951268,850.8771475105515,1014.6782072801062,1187.1158820296757
1533045000.589,1110.2378734522322,862.3586955217073,851.2873679970578,988.9891524914196,1090.9444220553214
1533045000.593,1182.1260933772578,903.3842257510832,856.2125356823874,978.7145827592254,1006.7997801795201
1533045000.5970001,1214.0733840736114,877.9486994826738,853.7503721475981,973.5746674349275,1087.9407950174025
1533045000.601,1195.4361013290923,856.2050340283029,843.8991961611881,955.5928551744871,1000.7863711302437
1533045000.605,1152.8397137339543,894.7687635783132,846.3613596959773,870.8237091965829,562.0044696830921
1533045000.609,1150.17334999432,873.4359583738432,840.615751037635,870.8237091965829,577.0287598461257
1533045000.613,1184.787004430308,902.1533254114004,842.6676940859179,875.9636245208808,700.2513280820663
1533045000.617,1190.108826536408,917.7433293723668,841.8464124971541,850.2745697321943,661.1795566953655
1533045000.62,1198.0970123821423,909.9487474943886,838.1527468870948,870.8237091965829,721.2890272943763
1533045000.6239998,1115.5651482449166,878.7687395724557,839.7944694488713,832.2927574717539,706.2585821579044
1533045000.6279998,1038.3496535272066,845.5386314260679,829.9432934624613,780.9146478943809,616.1005312328265
1533045000.6320002,1179.4597296376235,896.8205442127879,838.5629673736012,840.0,754.3473896318008
1533045000.6360002,1272.646143360218,921.8460504363064,844.3094166476944,883.6656061327254,970.7316358307382
1533045000.64,1232.7106668181302,891.4869228091654,834.048020174778,899.0800911892177,805.4398241436161
1533045000.644,1206.0851982278768,937.025194147372,842.2574735994116,850.2745697321943,742.3267265066862
1533045000.6479998,1192.7751902760422,938.6669547369559,847.5928617712474,829.7254302678057,1247.2253526286866
1533045000.6520002,1246.0206747699647,934.5642336730162,850.4660864082941,914.4945762457098,1274.276460890273
1533045000.6560001,1317.9088946949903,936.615174102481,849.2345843330239,1001.8310494275622,1130.0161934420223
1533045000.66,1272.646143360218,921.0251701415145,845.1306982364582,1014.6782072801062,1093.9542040666788
1533045000.6629999,1230.0497557650801,918.1533494172578,849.2345843330239,996.6963950196658,910.6283202051658
1533045000.667,1230.0497557650801,886.9741817003348,843.4889756746817,1014.6782072801062,1066.9030958050926
1533045000.671,1264.6579575144838,877.5386794377828,839.384248962365,1037.794673948443,1196.1329181168712
1533045000.675,1312.581619902306,892.7178231488483,849.6456454352814,1089.1727835258162,820.4641143066495
1533045000.679,1285.9616039986367,899.6923649370447,858.2653193464213,1099.4473532580105,712.2719912071808
1533045000.6829998,1198.0970123821423,917.7433293723668,860.7274828812104,1040.3672620687928,655.1723026195274
1533045000.687,1182.1260933772578,886.154141610553,857.4440377576575,1022.3854498083523,528.9461073456677
1533045000.691,1208.746109280927,900.1023849819356,864.4219891070209,1032.6600195405467,471.84026378457594
1533045000.695,1246.0206747699647,942.3588155509944,860.7274828812104,1058.3490743292332,805.4398241436161
1533045000.699,1256.6697716687493,929.2306122693938,851.6975884835642,1091.7401107297642,1124.002784392746
1533045000.7029998,1222.0615699193456,916.1024089877931,850.8771475105515,1081.4655409975699,811.447078219454
1533045000.706,1230.0497557650801,889.8460024245916,848.0039228735048,1042.934589272741,754.3473896318008
1533045000.71,1251.347949562649,887.3842017452258,843.4889756746817,1035.2273467444948,1069.9067228430115
1533045000.714,1296.6107008974213,914.8715086481102,847.5928617712474,1055.7764862088834,1117.995530316908
1533045000.718,1304.5988867431558,888.2050820400177,854.9810336071172,1107.1545957862566,1042.8617695548635
1533045000.7220001,1246.0206747699647,879.9996399121386,860.3172623947041,1102.0146804619585,901.6112841179703
1533045000.726,1203.4242871748268,894.3587435334222,859.085760319434,1055.7764862088834,1220.1803993405385
1533045000.73,1219.4006588662955,875.076878758417,856.6235967846447,1089.1727835258162,1196.1329181168712
1533045000.734,1251.347949562649,905.4360063855581,862.369205442987,1140.550893103189,1087.9407950174025
1533045000.738,1254.0088606156992,906.25604647534,866.8849932575612,1117.4291655184509,1208.1535812419856
1533045000.742,1195.4361013290923,876.3077790980999,854.9810336071172,1071.1909712653758,1000.7863711302437
1533045000.745,1136.8633420424856,865.230516245964,853.7503721475981,1112.2945111105544,790.4093790071441
1533045000.7489998,1150.17334999432,849.6405122849975,864.0117686205145,1122.5690808427487,757.3510166697197
1533045000.7529998,1216.7342951266614,889.0251221297997,867.2952137440675,1109.7219229902046,730.3060633815717
1533045000.7570002,1224.7224809723957,855.795013983412,857.0338172711511,1099.4473532580105,826.477523355926
1533045000.7610002,1184.787004430308,823.3841057217961,857.4440377576575,1073.7582984693238,613.0969041949074
1533045000.765,1230.0497557650801,852.9231932591553,868.5267158193377,1161.1000325675777,565.0080967210112
1533045000.769,1235.3715778711803,839.3841297276535,868.1156547170802,1173.9419295037203,607.0834951456311
1533045000.7729998,1179.4597296376235,912.4105481737544,872.6306019159034,1068.6236440614275,577.0287598461257
1533045000.7770002,1176.7988185845734,895.589643873105,868.5267158193377,1063.4837287371295,913.6319472430848
1533045000.7810001,1184.787004430308,859.0768547525596,872.220381429397,1119.996492722399,1160.0709287415277
1533045000.785,1110.2378734522322,909.9487474943886,877.5566102169839,1024.9527770123004,958.7109727056237
1533045000.7879999,1102.2496876064977,872.6150780790513,866.4739321553037,945.3182854422928,610.0871221835502
1533045000.792,1187.447915483358,895.999663917996,864.8322095935273,1001.8310494275622,862.5395127312695
1533045000.796,1227.3833920254458,905.846026430449,865.6534911822911,1004.4036375479119,970.7316358307382
1533045000.8,1190.108826536408,891.8969428540564,872.220381429397,1012.1108800761581,871.5565488184649
1533045000.804,1168.810632738839,911.9996879238535,872.220381429397,1053.2091590049351,1072.916504854369
1533045000.8079998,1198.0970123821423,864.8204962010731,862.7802665452444,1014.6782072801062,961.7145997435427
1533045000.812,1203.4242871748268,848.4104521503247,866.8849932575612,1037.794673948443,751.3437625938817
1533045000.816,1216.7342951266614,865.230516245964,871.3999404563843,1091.7401107297642,664.1831837332845
1533045000.82,1224.7224809723957,895.1796238282141,880.840055340537,1096.8800260540622,574.0251328082066
1533045000.824,1184.787004430308,919.7951100068417,878.788112292254,1073.7582984693238,565.0080967210112
1533045000.8270001,1166.149721685789,874.2559984636251,864.0117686205145,1073.7582984693238,628.121194357941
1533045000.831,1179.4597296376235,882.0514205466134,866.8849932575612,1094.312698850114,408.73332112108443
1533045000.835,1206.0851982278768,915.2815286930011,870.1684383811141,1068.6236440614275,697.2477010441473
1533045000.839,1206.0851982278768,883.2823208862962,866.4739321553037,1068.6236440614275,1072.916504854369
1533045000.843,1142.1851641485857,908.7178471547057,869.7582178946078,1089.1727835258162,1352.4138486902364
1533045000.8470001,1075.6242190162445,895.999663917996,865.2424300800336,1040.3672620687928,1127.0125664041034
1533045000.851,1150.17334999432,885.3332613157611,862.369205442987,1032.6600195405467,724.2926543322953
1533045000.855,1246.0206747699647,893.9487234885312,864.8322095935273,1112.2945111105544,604.0798681077121
1533045000.859,1224.7224809723957,884.1023609760782,866.4739321553037,1112.2945111105544,459.81960065946146
1533045000.863,1152.8397137339543,903.3842257510832,863.1904870317508,1094.312698850114,769.3716797948342
1533045000.867,1115.5651482449166,890.6668827193836,859.4968214216914,1068.6236440614275,790.4093790071441
1533045000.87,1163.488810632739,895.1796238282141,862.369205442987,1060.9164015331814,787.4057519692251
1533045000.8739998,1192.7751902760422,939.8970148716287,865.2424300800336,1024.9527770123004,1148.0502656164133
1533045000.8779998,1190.108826536408,873.4359583738432,863.6007075182571,1058.3490743292332,640.1418574830556
1533045000.8820002,1171.4715437918892,888.6151020849087,870.9888793541269,1066.0510559410777,598.0664590584356
1533045000.8860002,1139.5242530955356,916.923289282585,860.7274828812104,1027.5201042162487,850.518849606155
1533045000.89,1142.1851641485857,875.896918848199,859.085760319434,1030.087431420197,706.2585821579044
1533045000.894,1174.1379075315233,900.9232652767275,864.8322095935273,1050.6418318009871,571.0215057702876
1533045000.8979998,1166.149721685789,909.9487474943886,860.7274828812104,1071.1909712653758,300.53504304817733
1533045000.9020002,1152.8397137339543,909.5387274494976,865.6534911822911,1084.032868201518,820.4641143066495
1533045000.9060001,1158.1615358400545,849.2304922401066,864.8322095935273,1094.312698850114,916.6355742810039
1533045000.91,1152.8397137339543,802.0513005173262,856.6235967846447,1063.4837287371295,649.1588935702509
1533045000.9129999,1192.7751902760422,852.9231932591553,859.9070419081978,1053.2091590049351,889.5906209928559
1533045000.917,1168.810632738839,896.4105241678969,866.8849932575612,1068.6236440614275,1397.4928741527751
1533045000.921,1147.51243894127,885.3332613157611,867.7054342305739,1066.0510559410777,1045.8653965927826
1533045000.925,1166.149721685789,862.7687155665983,865.2424300800336,1063.4837287371295,598.0664590584356
1533045000.929,1147.51243894127,838.1540695929807,858.6755398329276,1030.087431420197,823.4677413445686
1533045000.9329998,1195.4361013290923,866.051396540756,859.4968214216914,1012.1108800761581,700.2513280820663
1533045000.937,1198.0970123821423,871.3841777393684,860.7274828812104,1037.794673948443,898.6015021066129
1533045000.941,1184.787004430308,860.7177751371335,867.7054342305739,1060.9164015331814,958.7109727056237
1533045000.945,1160.8224468931046,856.6150540731938,870.1684383811141,1053.2091590049351,610.0871221835502
1533045000.949,1147.51243894127,837.3331892981888,863.1904870317508,1068.6236440614275,889.5906209928559
1533045000.9520001,1182.1260933772578,845.5386314260679,865.2424300800336,1042.934589272741,1211.163363253343
1533045000.956,1208.746109280927,838.9741096827626,868.936936305844,1022.3854498083523,745.3303535446053
1533045000.96,1214.0733840736114,795.4867787740209,869.7582178946078,1068.6236440614275,892.5942480307749
1533045000.964,1112.8987845052823,825.4358863562709,870.9888793541269,1019.8128616880026,1093.9542040666788
1533045000.968,1078.2905827558786,853.3332133040462,871.8101609428907,963.3000977027332,823.4677413445686
1533045000.9720001,1118.2260592979667,864.8204962010731,872.6306019159034,983.8492371671218,546.9740245466203
1533045000.976,1195.4361013290923,882.8714606363952,878.788112292254,1099.4473532580105,450.8087195457043
1533045000.98,1200.7633761217767,878.3587195275647,874.6833855799373,1155.96011724328,730.3060633815717
1533045000.984,1115.5651482449166,876.3077790980999,867.2952137440675,1073.7582984693238,736.3133174574098
1533045000.988,1086.273315915029,839.7949899775546,869.3471567923503,1073.7582984693238,721.2890272943763
1533045000.992,1131.5360672498011,851.6922929194724,870.5786588676206,1107.1545957862566,823.4677413445686
1533045000.995,1179.4597296376235,866.8714366305378,865.2424300800336,1127.7037352506452,811.447078219454
1533045000.9989998,1152.8397137339543,854.97413368862,860.7274828812104,1158.5327053636295,1108.9784942297124
1533045001.0029998,1123.5478814040669,841.4359103621283,863.6007075182571,1094.312698850114,871.5565488184649
1533045001.0070002,1150.17334999432,835.282248868724,865.6534911822911,1066.0510559410777,688.2306649569518
1533045001.0110002,1142.1851641485857,866.051396540756,866.4739321553037,1078.8982137936218,1024.8276973804727
1533045001.015,1126.214245143701,889.8460024245916,868.5267158193377,1042.934589272741,895.597875068694
1533045001.019,1123.5478814040669,836.1022889585058,856.6235967846447,963.3000977027332,709.2683641692618
1533045001.0229998,1064.97512211746,834.871388618823,857.0338172711511,955.5928551744871,631.1248213958601
1533045001.0270002,1064.97512211746,865.230516245964,859.4968214216914,937.6110429140466,793.4191610185015
1533045001.0310001,1147.51243894127,881.2305402518215,852.9290905588343,888.8055214570234,898.6015021066129
1533045001.035,1208.746109280927,895.1796238282141,854.9810336071172,1001.8310494275622,745.3303535446053
1533045001.0379999,1200.7633761217767,904.2051060458751,859.085760319434,1086.605456321868,967.7280087928192
1533045001.042,1144.8515278882198,893.1278431937393,852.518870072328,1027.5201042162487,814.4568602308115
1533045001.046,1096.9278655003975,834.871388618823,844.7196371342008,976.1472555552772,510.9120351712768
1533045001.05,1107.576962399182,827.8976870356367,850.4660864082941,994.1290678157176,658.1759296574464
1533045001.054,1134.2024309894355,898.4614645973618,860.3172623947041,1024.9527770123004,1310.3384502656163
1533045001.0579998,1198.0970123821423,868.1023369702208,855.3920947093746,1094.312698850114,1391.4856200769373
1533045001.062,1214.0733840736114,856.6150540731938,855.802315195881,1107.1545957862566,724.2926543322953
1533045001.066,1120.8869703510168,904.6151260907661,860.3172623947041,1086.605456321868,655.1723026195274
1533045001.07,1123.5478814040669,874.2559984636251,852.9290905588343,1096.8800260540622,745.3303535446053
1533045001.074,1200.7633761217767,898.4614645973618,852.518870072328,1091.7401107297642,865.5431397691885
1533045001.0770001,1195.4361013290923,909.9487474943886,854.9810336071172,1084.032868201518,1072.916504854369
1533045001.081,1160.8224468931046,878.7687395724557,855.802315195881,1073.7582984693238,1069.9067228430115
1533045001.085,1134.2024309894355,865.230516245964,855.802315195881,1081.4655409975699,829.481150393845
1533045001.089,1134.2024309894355,833.2304682342492,848.8243638465176,1081.4655409975699,501.89499908408135
1533045001.093,1187.447915483358,838.5640896378717,852.9290905588343,1137.9783049828393,306.5484520974537
1533045001.0970001,1224.7224809723957,834.4613685739321,855.3920947093746,1140.550893103189,604.0798681077121
1533045001.101,1179.4597296376235,836.9231692532978,852.1078089700706,1081.4655409975699,604.0798681077121
1533045001.105,1126.214245143701,900.1023849819356,865.2424300800336,1078.8982137936218,748.3339805825243
1533045001.109,1123.5478814040669,860.7177751371335,861.1385439834679,1042.934589272741,682.2172559076754
1533045001.113,1139.5242530955356,873.8459784187341,854.9810336071172,1001.8310494275622,883.5772119435794
1533045001.117,1232.7106668181302,893.9487234885312,859.4968214216914,1073.7582984693238,1223.1840263784577
1533045001.12,1222.0615699193456,883.2823208862962,863.6007075182571,1078.8982137936218,973.7352628686573
1533045001.1239998,1142.1851641485857,872.6150780790513,861.9589849564807,1066.0510559410777,988.7657080051291
1533045001.1279998,1128.875156196751,820.9231452474404,851.6975884835642,1022.3854498083523,673.2002198204799
1533045001.1320002,1163.488810632739,842.6668107018112,859.085760319434,996.6963950196658,504.90478109543875
1533045001.1360002,1224.7224809723957,859.8977350473516,861.5487644699742,1071.1909712653758,438.7819014471515
1533045001.14,1208.746109280927,845.9486514709589,861.1385439834679,1058.3490743292332,429.7710203333944
1533045001.144,1190.108826536408,865.6405362908549,868.5267158193377,1063.4837287371295,886.5808389814985
1533045001.1479998,1155.5006247870044,849.6405122849975,867.2952137440675,1076.3308865896736,549.9838065579777
1533045001.1520002,1142.1851641485857,873.4359583738432,869.7582178946078,1045.501916476689,336.60318739695913
1533045001.1560001,1192.7751902760422,883.6923409311872,870.1684383811141,1096.8800260540622,568.0117237589302
1533045001.159,1184.787004430308,881.2305402518215,866.4739321553037,1153.3927900393317,691.2342919948709
1533045001.1629999,1150.17334999432,905.4360063855581,868.5267158193377,1107.1545957862566,874.5601758563839
1533045001.167,1128.875156196751,861.9486754768163,864.4219891070209,1050.6418318009871,952.6975636563474
1533045001.171,1136.8633420424856,857.8459544128767,863.1904870317508,1006.9709647518602,877.563802894303
1533045001.175,1176.7988185845734,879.1795998223566,866.0637116687974,1048.0692436806373,1030.841106429749
1533045001.179,1147.51243894127,877.9486994826738,864.8322095935273,1060.9164015331814,1181.1086279538376
1533045001.1829998,1088.9396796546632,891.8969428540564,863.6007075182571,1048.0692436806373,1157.0673017036088
1533045001.187,1110.2378734522322,840.6150300673364,857.8542582441638,1053.2091590049351,1012.8070342553581
1533045001.191,1088.9396796546632,835.692268913615,857.0338172711511,1004.4036375479119,874.5601758563839
1533045001.195,1126.214245143701,906.25604647534,866.8849932575612,1050.6418318009871,985.7620809672101
1533045001.199,1147.51243894127,882.0514205466134,865.2424300800336,1071.1909712653758,832.4847774317641
1533045001.2020001,1075.6242190162445,903.3842257510832,864.0117686205145,1068.6236440614275,847.5152225682359
1533045001.206,1014.3905486765875,966.1534214348301,868.1156547170802,1060.9164015331814,811.447078219454
1533045001.21,1070.3023969101444,951.7943178135465,864.0117686205145,1027.5201042162487,748.3339805825243
1533045001.214,1171.4715437918892,973.5379832679174,870.5786588676206,1089.1727835258162,859.5358856933505
1533045001.218,1110.2378734522322,987.077046799419,871.8101609428907,1042.934589272741,772.3814618061916
1533045001.2220001,1059.6533000113598,1001.4361504207027,871.8101609428907,947.8908735626425,1003.7899981681627
1533045001.226,1001.0750880381688,961.2306602811086,864.8322095935273,899.0800911892177,1054.882432679978
1533045001.23,897.2395774167898,914.8715086481102,857.8542582441638,878.530951724829,793.4191610185015
1533045001.234,934.5141429058276,950.5642576788737,858.6755398329276,893.9454367813213,796.4227880564206
1533045001.238,918.5432239009428,945.2306362752512,850.0558659217877,755.2255931056943,1108.9784942297124
1533045001.242,836.0059070771327,950.5642576788737,861.1385439834679,665.3217927198938,1018.8204433046345
1533045001.245,764.1176871521072,1014.5643537023034,877.1463897304776,673.0237743317383,949.6939366184283
1533045001.2489998,710.8722026581847,970.6661625436607,858.2653193464213,631.925495402961,1229.1912804542956
1533045001.2529998,766.7840508917415,970.6661625436607,857.4440377576575,680.7310168599845,1120.9991573548268
1533045001.2570002,668.2703623764626,989.9488675236757,874.273165093431,631.925495402961,961.7145997435427
1533045001.2610002,441.96205838918553,979.2816247164308,876.7353286282201,408.43650574943007,874.5601758563839
1533045001.265,378.0674769964785,950.1533974289727,871.3999404563843,393.02728160933935,778.3887158820297
1533045001.269,415.3420424855163,928.8205922245028,871.8101609428907,395.59460881328766,1211.163363253343
1533045001.2729998,388.71657389526297,925.948771500246,874.273165093431,274.86183831450245,1117.995530316908
1533045001.2770002,364.75201635805973,894.7687635783132,876.3251081417138,295.4109777788912,616.1005312328265
1533045001.2810001,335.46563671475633,870.1541176046956,879.1983327787605,313.3927900393316,784.402124931306
1533045001.284,223.641940247643,867.2822968804388,879.1983327787605,174.67820728010622,1009.8034072174391
1533045001.2879999,175.71827785982052,868.9232172650127,880.4298348540306,107.89087356264248,802.4300421322587
1533045001.292,141.1100761104169,916.1024089877931,884.12350046409,43.66560613272541,489.87433595896687
1533045001.296,151.75917300920142,922.6669307310984,885.7660636416175,51.37284866097167,853.522476644074
1533045001.3,157.0809951153016,907.0769267701319,890.691231326947,115.59285517448706,1054.882432679978
1533045001.304,66.5609451323414,967.384321774513,889.4597292516769,38.53095172482887,955.7073456677047
1533045001.3079998,77.21004203112575,931.6924129487595,884.5345615663473,0.0,799.4264150943396
1533045001.312,138.44371237078286,951.7943178135465,889.8699497381832,74.49457624570985,595.0628320205166
1533045001.316,194.35556060433942,994.8716286773973,884.5345615663473,136.1472555552772,1051.878805642059
1533045001.32,247.60649778484608,987.897086889201,882.8928390045709,161.8310494275622,1226.1876534163766
1533045001.324,218.3201181415428,990.3588875685667,880.4298348540306,164.40363754791193,898.6015021066129
1533045001.3270001,199.68283539702358,942.3588155509944,876.3251081417138,148.9891524914197,1087.9407950174025
1533045001.331,255.59468363058048,959.1797198516438,874.273165093431,172.11088007615803,1142.0368565671367
1533045001.335,380.7283880495286,976.820664242075,869.7582178946078,297.9783049828395,1045.8653965927826
1533045001.339,455.2775190276042,884.1023609760782,864.0117686205145,387.8873662850415,994.7729620809672
1533045001.343,441.96205838918553,901.7433053665094,862.7802665452444,359.6309842924068,943.6866825425902
1533045001.3470001,452.61660797455414,910.3587675392796,861.1385439834679,408.43650574943007,1304.32504121634
1533045001.351,492.552084516642,855.384153733511,861.9589849564807,498.34556705163214,1211.163363253343
1533045001.355,644.3112575258434,868.5123570151117,862.369205442987,508.62013678382647,742.3267265066862
1533045001.359,718.8603885039191,870.5641376495865,855.3920947093746,606.2364406142747,198.35632899798497
1533045001.363,718.8603885039191,863.5895958613902,853.7503721475981,719.2619685848135,228.41106429749038
1533045001.367,748.1467681472226,855.795013983412,855.3920947093746,760.3655084299922,559.0008426451731
1533045001.37,838.666818130183,872.6150780790513,851.2873679970578,824.5855149435077,652.16252060817
1533045001.3739998,1043.676928319891,866.8714366305378,848.0039228735048,947.8908735626425,808.4434511815351
1533045001.3779998,1147.51243894127,818.0513245231837,845.1306982364582,1030.087431420197,769.3716797948342
1533045001.3820002,1184.787004430308,845.9486514709589,846.3613596959773,1053.2091590049351,820.4641143066495
1533045001.3860002,1208.746109280927,901.3332853216185,852.518870072328,1102.0146804619585,838.4981864810405
1533045001.39,1246.0206747699647,854.1540935988381,844.7196371342008,1215.045469348899,868.552921780546
1533045001.394,1307.259797796206,854.1540935988381,849.6456454352814,1238.1619360172358,1021.8240703425536
1533045001.3979998,1381.8089287742814,890.6668827193836,853.7503721475981,1266.4183180098705,1057.886059717897
1533045001.4020002,1432.3935022151538,930.4615126090766,851.6975884835642,1364.0346218403186,1060.8958417292545
1533045001.4060001,1405.7680336249007,913.2305882635363,850.8771475105515,1374.3091915725129,1078.923758930207
1533045001.409,1376.4816539815972,849.6405122849975,831.5850160242378,1317.7964275872434,739.3169444953288
1533045001.4129999,1456.3580597523571,875.896918848199,836.0999632230609,1358.8947065160207,679.2136288697563
1533045001.417,1525.5799159377484,904.2051060458751,842.6676940859179,1428.2546283538343,685.2208829455944
1533045001.421,1512.2644552993297,871.3841777393684,834.048020174778,1456.511010346469,435.77827440923244
1533045001.425,1509.6035442462796,840.6150300673364,838.1527468870948,1453.9436831425207,862.5395127312695
1533045001.429,1506.9426331932295,792.6149580497641,834.8693017635418,1412.840143297342,979.7486719179337
1533045001.4329998,1549.5390207883677,832.4104281444672,839.7944694488713,1443.6691134103264,546.9740245466203
1533045001.437,1568.1763035328865,845.5386314260679,843.8991961611881,1548.9873988526192,826.477523355926
1533045001.441,1541.5562876292174,829.5386074202105,838.9731878601075,1515.596362452088,1304.32504121634
1533045001.445,1546.8781097353176,883.6923409311872,845.5409187229645,1471.9254954029611,1087.9407950174025
1533045001.449,1538.889923889583,843.0768307467022,841.8464124971541,1520.7310168599845,847.5152225682359
1533045001.4520001,1562.8544814267864,829.1277471703096,841.8464124971541,1536.1455019164766,727.2962813702143
1533045001.456,1650.7136203566965,853.3332133040462,847.5928617712474,1597.798181226044,844.5054405568785
1533045001.46,1648.0527093036465,878.7687395724557,848.8243638465176,1644.0363754791192,1102.9712401538743
1533045001.464,1594.80177212314,870.1541176046956,845.5409187229645,1605.5054237542902,1099.961458142517
1533045001.468,1557.527206634102,789.3331172806164,838.9731878601075,1579.8163689656037,1045.8653965927826
1533045001.4720001,1592.1408610700898,811.0767827349873,849.2345843330239,1582.3836961695517,1048.8690236307016
1533045001.476,1666.6899920481653,835.282248868724,851.2873679970578,1646.6037026830675,946.6903095805093
1533045001.48,1616.0999659207089,786.4612965563598,845.951139209471,1680.0,504.90478109543875
1533045001.484,1565.5153924798365,844.717751131276,858.2653193464213,1559.2619685848135,441.7916834585089
1533045001.488,1560.1935703737363,846.3586715158499,862.7802665452444,1533.5781747125286,889.5906209928559
1533045001.4910002,1538.889923889583,830.7695077598934,854.9810336071172,1572.1091264373574,1343.3968126030409
1533045001.495,1573.5035783255707,840.6150300673364,851.6975884835642,1572.1091264373574,1178.1050009159187
1533045001.4989998,1560.1935703737363,846.3586715158499,854.9810336071172,1564.4018839091113,1202.1463271661476
1533045001.5029998,1490.9662615017608,836.1022889585058,852.1078089700706,1525.8709321842823,955.7073456677047
1533045001.5070002,1477.656253549926,809.4358623504135,847.1826412847411,1482.2000651351555,949.6939366184283
1533045001.5110002,1493.632625241395,812.3076830746702,850.4660864082941,1456.511010346469,1108.9784942297124
1533045001.515,1560.1935703737363,804.102240946791,858.2653193464213,1510.4564471277902,781.3923429199488
1533045001.519,1594.80177212314,842.2559504519103,861.5487644699742,1564.4018839091113,519.9290712584723
1533045001.5229998,1536.229012836533,909.1278671995967,866.8849932575612,1559.2619685848135,1012.8070342553581
1533045001.5270002,1493.632625241395,858.2559744577677,857.4440377576575,1538.7128291204249,826.477523355926
1533045001.5310001,1522.9190048846983,813.1277231644522,854.5708131206109,1492.4746348673498,501.89499908408135
1533045001.534,1578.825400431671,855.795013983412,865.2424300800336,1531.0055865921788,1051.878805642059
1533045001.5379999,1605.4508690219243,848.8204721952156,859.9070419081978,1536.1455019164766,847.5152225682359
1533045001.542,1562.8544814267864,882.8714606363952,864.0117686205145,1471.9254954029611,691.2342919948709
1533045001.546,1520.2526411450642,904.2051060458751,868.5267158193377,1471.9254954029611,925.6526103681992
1533045001.55,1501.6153584005453,848.4104521503247,865.6534911822911,1412.840143297342,853.522476644074
1533045001.554,1498.9544473474953,868.9232172650127,865.6534911822911,1387.156349425057,706.2585821579044
1533045001.5579998,1498.9544473474953,881.6405602967124,866.4739321553037,1433.394543678132,580.0385418574831
1533045001.562,1482.9780756560262,867.2822968804388,869.7582178946078,1435.9618708820803,601.076241069793
1533045001.566,1405.7680336249007,857.8459544128767,868.1156547170802,1387.156349425057,820.4641143066495
1533045001.57,1373.8207429285471,862.7687155665983,868.1156547170802,1356.3273793120725,961.7145997435427
1533045001.574,1424.4053163694196,903.3842257510832,874.6833855799373,1371.7418643685648,916.6355742810039
1533045001.5770001,1453.691696012723,855.795013983412,864.8322095935273,1371.7418643685648,838.4981864810405
1533045001.581,1411.0953084175849,847.5895718555328,859.4968214216914,1263.8509908059223,868.552921780546
1533045001.585,1365.8325570828126,919.3842497569407,868.936936305844,1238.1619360172358,1102.9712401538743
1533045001.589,1344.5343632852437,856.2050340283029,867.2952137440675,1251.0090938697797,886.5808389814985
1533045001.593,1365.8325570828126,872.2050580341603,870.9888793541269,1261.283663601974,703.2549551199853
1533045001.5970001,1416.417130523685,916.1024089877931,869.7582178946078,1276.6981486584664,694.2379190327899
1533045001.601,1389.797114620016,918.9742297120497,868.1156547170802,1276.6981486584664,513.9156622091958
1533045001.605,1331.218902646825,918.1533494172578,869.7582178946078,1256.1437482776762,1015.8106612932771
1533045001.609,1347.1952743382938,838.5640896378717,862.369205442987,1235.5946088132876,1012.8070342553581
1533045001.613,1376.4816539815972,851.6922929194724,867.2952137440675,1271.5582333341683,829.481150393845
1533045001.6160002,1405.7680336249007,878.3587195275647,871.3999404563843,1284.400130270311,817.4604872687305
1533045001.62,1395.118936726116,859.0768547525596,866.0637116687974,1274.1255605381166,652.16252060817
1533045001.6239998,1363.1716460297625,928.4097319746018,876.3251081417138,1274.1255605381166,853.522476644074
1533045001.6279998,1312.581619902306,898.4614645973618,871.8101609428907,1271.5582333341683,994.7729620809672
1533045001.6320002,1341.8679995456096,879.1795998223566,862.7802665452444,1292.107372798557,898.6015021066129
1533045001.6360002,1416.417130523685,897.2305642576789,870.9888793541269,1312.6565122629456,859.5358856933505
1533045001.64,1381.8089287742814,917.333309327476,873.8621039911735,1315.2291003832954,970.7316358307382
1533045001.644,1360.5052822901284,882.0514205466134,859.4968214216914,1307.5218578550491,892.5942480307749
1533045001.6479998,1325.8970805407248,804.102240946791,857.8542582441638,1294.6747000025052,414.7405751969225
1533045001.6520002,1304.5988867431558,831.9995678945663,868.1156547170802,1276.6981486584664,402.71991207180804
1533045001.6560001,1373.8207429285471,829.5386074202105,870.9888793541269,1315.2291003832954,928.6562374061183
1533045001.659,1363.1716460297625,817.6413044782927,874.273165093431,1328.0709973194378,1072.916504854369
1533045001.6629999,1312.581619902306,866.051396540756,872.6306019159034,1317.7964275872434,568.0117237589302
1533045001.667,1267.3243212541179,852.5123330092542,863.6007075182571,1268.9909061302203,471.84026378457594
1533045001.671,1214.0733840736114,832.4104281444672,859.4968214216914,1125.136408046697,802.4300421322587
1533045001.675,1277.9734181529025,843.8977110414942,861.1385439834679,1137.9783049828393,865.5431397691885
1533045001.679,1328.557991593775,857.8459544128767,862.7802665452444,1230.4546934889897,838.4981864810405
1533045001.6829998,1280.6343292059526,885.3332613157611,869.7582178946078,1212.4728812285493,715.2756182450998
1533045001.687,1246.0206747699647,849.2304922401066,864.8322095935273,1189.3564145602124,727.2962813702143
1533045001.691,1246.0206747699647,834.0513485290411,864.8322095935273,1161.1000325675777,823.4677413445686
1533045001.695,1283.2952402590026,869.7432573547945,874.273165093431,1194.4910689681087,865.5431397691885
1533045001.699,1254.0088606156992,881.6405602967124,876.7353286282201,1194.4910689681087,904.6149111558893
1533045001.7020001,1219.4006588662955,864.4104761561821,871.8101609428907,1194.4910689681087,847.5152225682359
1533045001.706,1179.4597296376235,828.3077070805276,870.1684383811141,1179.0818448280181,712.2719912071808
1533045001.71,1187.447915483358,834.4613685739321,870.9888793541269,1127.7037352506452,682.2172559076754
1533045001.714,1219.4006588662955,889.8460024245916,867.2952137440675,1148.2528747150336,748.3339805825243
1533045001.718,1198.0970123821423,840.6150300673364,863.6007075182571,1130.2710624545932,847.5152225682359
1533045001.7220001,1158.1615358400545,842.6668107018112,868.1156547170802,1107.1545957862566,970.7316358307382
1533045001.726,1096.9278655003975,904.2051060458751,873.4518835046672,1055.7764862088834,1196.1329181168712
1533045001.73,1136.8633420424856,861.9486754768163,870.1684383811141,1096.8800260540622,1105.9748671917935
1533045001.734,1211.4124730205613,873.4359583738432,862.369205442987,1125.136408046697,730.3060633815717
1533045001.738,1312.581619902306,893.5387034436402,850.4660864082941,1158.5327053636295,565.0080967210112
1533045001.7410002,1525.5799159377484,915.6923889429021,857.0338172711511,1407.7054888894456,778.3887158820297
1533045001.745,1368.4934681358627,889.8460024245916,867.7054342305739,1364.0346218403186,1069.9067228430115
1533045001.7489998,1025.039645575372,792.6149580497641,861.1385439834679,1081.4655409975699,952.6975636563474
1533045001.7529998,950.4905145972964,810.6667626900963,867.7054342305739,999.263722223614,961.7145997435427
1533045001.7570002,1003.741451777803,847.9995919004238,880.4298348540306,1040.3672620687928,925.6526103681992
1533045001.7610002,918.5432239009428,846.3586715158499,881.2502758270433,963.3000977027332,790.4093790071441
1533045001.765,817.3686243326139,850.4613925797895,891.9227334022171,906.7873337174638,685.2208829455944
1533045001.769,748.1467681472226,789.7431373255074,891.9227334022171,919.6292306536062,540.9667704707822
1533045001.7729998,657.6212654776781,795.0767587291299,884.9447820528537,873.3910364005311,739.3169444953288
1533045001.7770002,689.5740088606157,775.7948939541249,895.2061785257702,881.0982789287772,1036.8483605055872
1533045001.7810001,676.258548222197,766.7694117364637,895.6163990122765,906.7873337174638,1108.9784942297124
1533045001.784,657.6212654776781,821.3331652923313,891.9227334022171,947.8908735626425,916.6355742810039
1533045001.7879999,633.6621606270589,770.4612725505024,891.9227334022171,971.0073402309793,616.1005312328265
1533045001.792,641.6503464727933,770.0512525056114,896.4376806010403,981.2819099631736,760.3546437076387
1533045001.796,745.4804044075884,755.2821288394368,893.1542354774873,1012.1108800761581,865.5431397691885
1533045001.8,796.0704305350449,745.0257462820929,886.9967251011366,1063.4837287371295,712.2719912071808
1533045001.804,782.7549698966261,825.8459064011619,891.5116722999597,1094.312698850114,760.3546437076387
1533045001.8079998,788.0822446893104,824.204986016588,886.9967251011366,1099.4473532580105,1196.1329181168712
1533045001.812,812.0468022265137,784.410356126895,870.1684383811141,1091.7401107297642,1111.9821212676313
1533045001.816,902.5668522094741,772.5130531849771,866.4739321553037,1135.4109777788913,625.117567320022
1533045001.82,918.5432239009428,813.1277231644522,874.273165093431,1189.3564145602124,571.0215057702876
1533045001.823,905.2277632625241,832.8204481893582,870.5786588676206,1204.7708996167046,528.9461073456677
1533045001.8270001,921.2041349539929,782.7694357423211,864.0117686205145,1179.0818448280181,204.36358307382304
1533045001.831,950.4905145972964,789.7431373255074,868.1156547170802,1132.843650574943,574.0251328082066
1533045001.835,1049.0042031125752,823.7949659716971,876.7353286282201,1153.3927900393317,1235.2046895035721
1533045001.839,1043.676928319891,817.2304442283918,878.3770511899967,1186.7890873562642,892.5942480307749
1533045001.843,982.443257980234,810.2559024401954,873.0416630181608,1161.1000325675777,712.2719912071808
1533045001.8470001,982.443257980234,802.4613205622172,870.1684383811141,1161.1000325675777,1136.0296024912989
1533045001.851,982.443257980234,810.6667626900963,863.6007075182571,1137.9783049828393,913.6319472430848
1533045001.855,1075.6242190162445,843.8977110414942,864.0117686205145,1163.667359771526,625.117567320022
1533045001.859,1155.5006247870044,814.769483754036,868.936936305844,1204.7708996167046,694.2379190327899
1533045001.863,1107.576962399182,849.6405122849975,874.273165093431,1153.3927900393317,799.4264150943396
1533045001.8660002,1078.2905827558786,901.7433053665094,869.3471567923503,1109.7219229902046,880.5735849056604
1533045001.87,1104.910598659548,850.0513725348985,866.8849932575612,1130.2710624545932,931.6598644440373
1533045001.8739998,1163.488810632739,859.0768547525596,869.7582178946078,1168.8072750958238,919.6392013189229
1533045001.8779998,1227.3833920254458,911.5896678789625,868.5267158193377,1176.5145176240699,793.4191610185015
1533045001.8820002,1208.746109280927,928.8205922245028,868.5267158193377,1166.234686975474,781.3923429199488
1533045001.8860002,1182.1260933772578,898.8714846422527,865.2424300800336,1197.0636570884585,1009.8034072174391
1533045001.89,1176.7988185845734,835.692268913615,857.8542582441638,1225.3200390810932,1127.0125664041034
1533045001.894,1195.4361013290923,849.6405122849975,861.9589849564807,1191.9237417641607,838.4981864810405
1533045001.8979998,1251.347949562649,910.3587675392796,873.0416630181608,1248.4365057494301,934.6696464553947
1533045001.9020002,1248.687038509599,923.4869708208803,874.6833855799373,1271.5582333341683,868.552921780546
1533045001.9060001,1214.0733840736114,903.7950860009843,870.5786588676206,1253.576421073728,901.6112841179703
1533045001.909,1179.4597296376235,857.0259143230949,857.4440377576575,1220.1801237567954,1160.0709287415277
1533045001.9129999,1190.108826536408,866.051396540756,854.9810336071172,1189.3564145602124,850.518849606155
1533045001.917,1238.0324889242304,850.4613925797895,863.6007075182571,1189.3564145602124,1000.7863711302437
1533045001.921,1208.746109280927,849.6405122849975,865.6534911822911,1168.8072750958238,1130.0161934420223
1533045001.925,1142.1851641485857,909.5387274494976,869.3471567923503,1109.7219229902046,1087.9407950174025
1533045001.929,1104.910598659548,854.1540935988381,863.1904870317508,1109.7219229902046,1169.0879648287232
1533045001.9329998,1118.2260592979667,850.4613925797895,859.085760319434,1143.1182203071373,673.2002198204799
1533045001.937,1155.5006247870044,839.3841297276535,859.4968214216914,1130.2710624545932,625.117567320022
1533045001.941,1158.1615358400545,863.5895958613902,864.8322095935273,1125.136408046697,991.7693350430482
1533045001.945,1142.1851641485857,922.6669307310984,871.3999404563843,1132.843650574943,637.1382304451365
1533045001.948,1086.273315915029,886.9741817003348,865.6534911822911,1091.7401107297642,667.1929657446419
1533045001.9520001,1104.910598659548,872.2050580341603,863.6007075182571,1060.9164015331814,616.1005312328265
1533045001.956,1171.4715437918892,882.0514205466134,870.9888793541269,1127.7037352506452,492.87796299688586
1533045001.96,1179.4597296376235,925.5379112503451,879.6085532652668,1173.9419295037203,1012.8070342553581
1533045001.964,1174.1379075315233,926.768811590028,879.6085532652668,1158.5327053636295,1042.8617695548635
1533045001.968,1094.2615017607634,862.7687155665983,868.1156547170802,1102.0146804619585,495.88774500824326
1533045001.9720001,1062.3142110644098,854.5641136437291,862.369205442987,1058.3490743292332,423.75761128411796
1533045001.976,1150.17334999432,859.4868747974506,873.8621039911735,1117.4291655184509,763.3644257189961
1533045001.98,1158.1615358400545,860.3077550922425,878.788112292254,1137.9783049828393,652.16252060817
1533045001.984,1102.2496876064977,853.3332133040462,872.220381429397,1125.136408046697,501.89499908408135
1533045001.988,1064.97512211746,821.3331652923313,872.6306019159034,1163.667359771526,634.1346034072175
1533045001.9910002,1104.910598659548,823.7949659716971,871.8101609428907,1158.5327053636295,643.1516394944128
1533045001.995,1147.51243894127,866.4614165856469,873.8621039911735,1114.8618383145026,817.4604872687305
1533045001.9989998,1174.1379075315233,893.9487234885312,876.7353286282201,1135.4109777788913,862.5395127312695
1533045002.0029998,1158.1615358400545,911.1796478340715,869.7582178946078,1127.7037352506452,694.2379190327899
1533045002.0070002,1094.2615017607634,881.6405602967124,862.369205442987,1109.7219229902046,766.3680527569152
1533045002.0110002,1104.910598659548,870.1541176046956,869.3471567923503,1122.5690808427487,931.6598644440373
