timestamps,TP9,AF7,AF8,TP10,Right AUX
1533058268.93,954.2393944482901,981.8245651364434,553.371478488753,941.6135465569994,840.0
1533058268.934,1007.9958712383418,872.7304643864036,493.64955958360633,1002.5809808123474,777.2236110402531
1533058268.938,1088.6374676928497,850.9027075908293,529.4827109266944,1036.453319129433,813.093209530126
1533058268.9420002,1031.516050151347,850.9027075908293,545.4058382470699,1039.838471924587,857.9317381766236
1533058268.946,971.0365731278237,905.460928772807,517.538327145665,1039.838471924587,771.2422835569614
1533058268.95,967.678513645803,938.1690515452949,449.8589211618257,1053.3860198937184,750.316820570379
1533058268.954,1048.3201101003108,949.0941007500398,473.7476887238844,1050.0008670985644,983.4845160961175
1533058268.958,1112.1576466058548,894.5358795680621,469.7689451845381,1036.453319129433,968.5403805928269
1533058268.9620001,1044.95516934886,949.0941007500398,386.1664118803232,1016.1285287814787,1046.2609050558644
1533058268.965,991.1986925588083,1014.5326879089313,418.0126665210745,982.2561904643932,1168.8260803020255
1533058268.9689999,991.1986925588083,949.0941007500398,433.9357938414501,1009.3582231911705,884.8385286464976
1533058268.9729998,1038.2390503848187,796.3668280227672,445.88017762247944,1080.4880526204956,857.9317381766236
1533058268.9770002,1182.7181833448703,883.6331719772328,549.3845817864162,1141.455486875844,920.7081271363706
1533058268.981,1273.4408395148705,1330.9122825682218,652.8971391133435,1215.9704691003233,804.1242793735014
1533058268.985,1259.9948390479271,1450.9090909090912,712.6109048554997,1297.262693703626,968.5403805928269
1533058268.9889998,1236.4815414043524,1385.448162136284,700.6665210744704,1273.5527505605173,1007.3975817560329
1533058268.9929998,1249.9206606018654,1385.448162136284,664.8333697313824,1226.1328642743003,735.3726850670885
1533058268.9970002,1330.5553757869427,1265.4513537954147,684.7433937540948,1263.3903553865403,753.3044232437121
1533058269.0010002,1313.7581971074092,1156.3572530453748,708.6321613161534,1236.2952594482776,765.2670782102954
1533058269.005,1246.5557198504143,1156.3572530453748,708.6321613161534,1205.8080739263462,499.21738686801694
1533058269.008,1179.3601238628498,1003.6299803181021,680.7646502147485,1182.0981307832378,642.7019029641344
1533058269.012,1155.8399449498445,927.2663439544657,644.9314988716604,1141.455486875844,696.5093617672568
1533058269.016,1276.7988989968912,1090.8963242725677,672.7990099730655,1141.455486875844,920.7081271363706
1533058269.02,1263.3597797993782,1134.5294962498006,664.8333697313824,1134.6782444970208,1147.900617315443
1533058269.024,1139.0358850008806,1189.0877174317782,589.1964766688506,1138.063397292175,890.8137339931636
1533058269.0279999,1135.67782551886,1189.0877174317782,505.59394336463566,1117.7455437327355,696.5093617672568
1533058269.032,1162.5560639138857,1101.8213734773128,505.59394336463566,1080.4880526204956,499.21738686801694
1533058269.036,1212.9613624913472,1079.9936166817383,573.2733493484749,1131.293091701867,445.40992806489464
1533058269.04,1239.839600886373,1101.8213734773128,557.3502220280993,1124.515849323044,792.1677465435437
1533058269.044,1172.637123629378,1156.3572530453748,533.4614544660407,1090.6435110059583,810.105606856793
1533058269.0470002,1102.0765868903625,1156.3572530453748,553.371478488753,1104.1979957636042,792.1677465435437
1533058269.051,1085.279408210829,1221.8181818181818,557.3502220280993,1053.3860198937184,786.1925411968778
1533058269.055,1145.7588852343522,1374.5454545454545,605.1196039892262,1043.230561508256,851.9565328299576
1533058269.059,1172.637123629378,1309.0845257726476,533.4614544660407,1056.7781094773875,786.1925411968778
1533058269.063,1065.1172887798443,1210.8931326134368,501.6151998252894,1046.6157143034104,729.3913575837968
1533058269.0670002,1001.2797522743006,1156.3572530453748,537.440198005387,1066.9405046513648,1046.2609050558644
1533058269.071,1021.441871705285,1079.9936166817383,509.57268690398195,1050.0008670985644,1354.1615223713077
1533058269.075,1075.1983484953366,1047.2631522953347,489.67081604426005,1029.67607675061,1162.8447528187337
1533058269.079,1075.1983484953366,927.2663439544657,517.538327145665,1033.0681663342789,1019.3602367226162
1533058269.083,1014.7188714718134,938.1690515452949,561.3289655674456,999.1958280171933,1040.2795775725729
1533058269.0870001,940.8002752507772,1025.4577371136763,501.6151998252894,972.1007320789307,1031.3167695525738
1533058269.09,937.4353344993262,916.3636363636364,473.7476887238844,995.8106752220394,1138.9316871588185
1533058269.0939999,1034.880990902798,927.2663439544657,577.2520928878212,1053.3860198937184,1022.3478393959492
1533058269.0979998,1091.9955271748702,1003.6299803181021,581.238989590158,1100.8059061799354,759.2857507270037
1533058269.1020002,1051.6781695823315,959.9968083408692,541.4270947077237,1097.4207533847812,896.7950614764553
1533058269.106,984.4756923253366,850.9027075908293,573.2733493484749,1033.0681663342789,759.2857507270037
1533058269.11,971.0365731278237,741.8086068407894,565.3077091067919,1016.1285287814787,553.0248456711392
1533058269.1139998,1034.880990902798,741.8086068407894,557.3502220280993,1053.3860198937184,872.88199581654
1533058269.1179998,1112.1576466058548,774.539071227193,517.538327145665,1046.6157143034104,860.9254629865823
1533058269.1220002,1088.6374676928497,796.3668280227672,513.5595836063187,1050.0008670985644,804.1242793735014
1533058269.1260002,1024.7999311873057,785.4417788180223,589.1964766688506,1063.5484150676957,657.6460384674251
1533058269.13,971.0365731278237,818.1722432044257,577.2520928878212,1016.1285287814787,962.5590531095353
1533058269.133,1095.3604679263212,959.9968083408692,541.4270947077237,1036.453319129433,1156.8634253354421
1533058269.137,1186.076242826891,981.8245651364434,549.3845817864162,1083.8732054156499,917.7205244630376
1533058269.141,1102.0765868903625,883.6331719772328,473.7476887238844,1077.095963036827,621.7764399775522
1533058269.145,1044.95516934886,774.539071227193,441.90143408313315,1043.230561508256,768.2546808836283
1533058269.149,1014.7188714718134,741.8086068407894,437.9145373807964,1050.0008670985644,750.316820570379
1533058269.1529999,1024.7999311873057,709.1004840683016,469.7689451845381,1043.230561508256,642.7019029641344
1533058269.157,1071.8402890133161,720.0031916591308,505.59394336463566,1022.9057711603017,1088.1118310290292
1533058269.161,1051.6781695823315,774.539071227193,473.7476887238844,1053.3860198937184,1070.17397071578
1533058269.165,1014.7188714718134,730.9058992499602,513.5595836063187,1077.095963036827,816.080812203459
1533058269.169,1024.7999311873057,687.2727272727273,509.57268690398195,1124.515849323044,786.1925411968778
1533058269.1720002,1065.1172887798443,654.5422628863238,497.6364562859431,1131.293091701867,732.3789602571297
1533058269.176,1149.116944716373,589.0813341135167,549.3845817864162,1077.095963036827,675.5838987806744
1533058269.18,1145.7588852343522,600.0063833182616,573.2733493484749,1050.0008670985644,511.1739196979746
1533058269.184,1031.516050151347,730.9058992499602,513.5595836063187,1046.6157143034104,729.3913575837968
1533058269.188,957.5974539303107,796.3668280227672,453.8458178641625,1012.7433759863246,908.7515943064129
1533058269.1920002,957.5974539303107,796.3668280227672,493.64955958360633,1012.7433759863246,914.7329217897046
1533058269.196,1061.7592292978238,861.8054151816586,549.3845817864162,1080.4880526204956,816.080812203459
1533058269.2,1098.718527408342,894.5358795680621,453.8458178641625,1073.7108102416728,816.080812203459
1533058269.204,997.9216927922798,883.6331719772328,421.9914100604208,985.6482800480622,896.7950614764553
1533058269.208,923.9962153018133,850.9027075908293,521.5170706850113,1009.3582231911705,917.7205244630376
1533058269.2120001,950.8813349662695,807.2695356135964,565.3077091067919,1060.1632622725415,1091.0994337023621
1533058269.215,1061.7592292978238,829.0972924091707,581.238989590158,1063.5484150676957,1058.2174378858222
1533058269.2189999,1078.5564079773574,861.8054151816586,585.2177331295043,1060.1632622725415,822.0621396867507
1533058269.2229998,1001.2797522743006,774.539071227193,617.0639877702555,1050.0008670985644,974.5155859394929
1533058269.2270002,974.4015138792747,665.444970477153,561.3289655674456,1009.3582231911705,986.4721187694505
1533058269.231,960.9555134123314,632.7368477046651,517.538327145665,985.6482800480622,896.7950614764553
1533058269.235,1001.2797522743006,632.7368477046651,569.2946058091286,965.3234897001078,732.3789602571297
1533058269.2389998,1065.1172887798443,796.3668280227672,561.3289655674456,999.1958280171933,672.5962961073415
1533058269.2429998,987.8406330767876,883.6331719772328,549.3845817864162,1033.0681663342789,559.0000510178052
1533058269.2470002,897.1179769067875,785.4417788180223,541.4270947077237,1036.453319129433,651.6708331207592
1533058269.2510002,863.51673827829,741.8086068407894,557.3502220280993,1029.67607675061,1007.3975817560329
1533058269.254,930.7192155352849,774.539071227193,573.2733493484749,1016.1285287814787,804.1242793735014
1533058269.258,1004.6378117563212,643.6395552954946,537.440198005387,1036.453319129433,735.3726850670885
1533058269.262,920.6381558197927,600.0063833182616,541.4270947077237,1019.5206183651476,738.3602877404214
1533058269.266,900.4760363888081,741.8086068407894,617.0639877702555,1026.2909239554558,771.2422835569614
1533058269.27,937.4353344993262,752.7336560455343,569.2946058091286,1022.9057711603017,890.8137339931636
1533058269.274,1014.7188714718134,829.0972924091707,497.6364562859431,992.4185856383704,762.2733534003368
1533058269.2779999,1108.7995871238343,850.9027075908293,453.8458178641625,1033.0681663342789,872.88199581654
1533058269.282,1041.5971098668392,850.9027075908293,449.8589211618257,1070.3256574465186,720.4224274271721
1533058269.286,967.678513645803,905.460928772807,549.3845817864162,1039.838471924587,857.9317381766236
1533058269.29,944.1583347327978,850.9027075908293,557.3502220280993,1009.3582231911705,1097.0807611856537
1533058269.294,977.7595733612953,763.6363636363636,545.4058382470699,1063.5484150676957,1144.9068925054844
1533058269.2970002,1061.7592292978238,752.7336560455343,577.2520928878212,1124.515849323044,1372.099382684557
1533058269.301,1061.7592292978238,850.9027075908293,565.3077091067919,1134.6782444970208,1138.9316871588185
1533058269.305,1021.441871705285,883.6331719772328,525.503967387348,1121.1306965278895,1159.8571501454007
1533058269.309,1007.9958712383418,905.460928772807,505.59394336463566,1121.1306965278895,1135.9379623488599
1533058269.313,1055.0362290643523,949.0941007500398,501.6151998252894,1080.4880526204956,726.4037549104637
1533058269.3170002,1162.5560639138857,883.6331719772328,533.4614544660407,1066.9405046513648,723.4161522371307
1533058269.321,1145.7588852343522,883.6331719772328,581.238989590158,1124.515849323044,810.105606856793
1533058269.325,1058.401169815803,872.7304643864036,593.1752202081968,1148.2257924661521,699.4969644405897
1533058269.329,1007.9958712383418,883.6331719772328,593.1752202081968,1131.293091701867,723.4161522371307
1533058269.333,1018.0769309538341,916.3636363636364,589.1964766688506,1073.7108102416728,1264.4844650783123
1533058269.3370001,1132.3197660368394,872.7304643864036,557.3502220280993,1070.3256574465186,1470.745370134177
1533058269.34,1145.7588852343522,807.2695356135964,513.5595836063187,1033.0681663342789,1162.8447528187337
1533058269.3439999,1058.401169815803,818.1722432044257,493.64955958360633,1005.9661336075017,1103.0559665323199
1533058269.3479998,1028.1579906693264,785.4417788180223,394.1238989590158,1026.2909239554558,762.2733534003368
1533058269.3520002,1031.516050151347,709.1004840683016,354.3120040765815,1033.0681663342789,747.3292178970461
1533058269.356,1135.67782551886,720.0031916591308,382.17951517798645,1053.3860198937184,956.5838477628693
1533058269.36,1199.5153620244039,741.8086068407894,378.20077163864016,1046.6157143034104,1001.4223764093668
1533058269.3639998,1085.279408210829,763.6363636363636,406.0682827400451,1029.67607675061,1025.3354420692822
1533058269.3679998,987.8406330767876,698.1754348635566,398.11079566135254,1036.453319129433,738.3602877404214
1533058269.3720002,1011.3608119897928,676.370019681898,394.1238989590158,1026.2909239554558,630.7453701341768
1533058269.3760002,1091.9955271748702,730.9058992499602,445.88017762247944,1033.0681663342789,762.2733534003368
1533058269.379,1081.9213487288084,654.5422628863238,477.72643226323066,1087.258358210804,917.7205244630376
1533058269.383,987.8406330767876,643.6395552954946,465.78204848220133,1009.3582231911705,756.2981480536707
1533058269.387,937.4353344993262,665.444970477153,505.59394336463566,944.9986993521535,576.9379113310546
1533058269.391,947.5163942148184,556.3732113410288,485.6920725049137,978.8710376692391,780.2112137135861
1533058269.395,1004.6378117563212,610.9090909090909,461.80330494285505,978.8710376692391,1004.4099790826998
1533058269.399,1068.475348261865,741.8086068407894,513.5595836063187,992.4185856383704,851.9565328299576
1533058269.4029999,1028.1579906693264,774.539071227193,525.503967387348,975.4858848740852,678.5715014540075
1533058269.407,971.0365731278237,785.4417788180223,481.7133289655674,972.1007320789307,597.8633743176368
1533058269.411,960.9555134123314,774.539071227193,457.82456140350877,978.8710376692391,681.5652262639661
1533058269.415,1044.95516934886,785.4417788180223,549.3845817864162,1033.0681663342789,807.11800418346
1533058269.419,1128.9548252853883,785.4417788180223,521.5170706850113,1066.9405046513648,968.5403805928269
1533058269.4220002,1061.7592292978238,752.7336560455343,453.8458178641625,1046.6157143034104,795.1553492168767
1533058269.426,974.4015138792747,741.8086068407894,489.67081604426005,1009.3582231911705,720.4224274271721
1533058269.43,903.8409771402592,709.1004840683016,445.88017762247944,958.5462473212848,840.0
1533058269.434,1004.6378117563212,665.444970477153,465.78204848220133,948.3907889358223,1046.2609050558644
1533058269.438,1209.5964217398962,720.0031916591308,461.80330494285505,1036.453319129433,1094.0931585123208
1533058269.4420002,1196.1573025423834,850.9027075908293,477.72643226323066,1178.7129779880836,651.6708331207592
1533058269.446,1007.9958712383418,774.539071227193,585.2177331295043,1100.8059061799354,881.8509259731646
1533058269.45,893.7599174247669,600.0063833182616,553.371478488753,951.7759417309765,977.5093107494515
1533058269.454,930.7192155352849,610.9090909090909,529.4827109266944,911.1332978235826,807.11800418346
1533058269.458,1024.7999311873057,578.1786265226874,565.3077091067919,948.3907889358223,866.9006683332483
1533058269.4620001,1024.7999311873057,556.3732113410288,569.2946058091286,1026.2909239554558,998.4347737360339
1533058269.465,940.8002752507772,567.2759189318581,477.72643226323066,1002.5809808123474,1016.3665119126575
1533058269.4689999,907.1990366222798,523.6427469546253,406.0682827400451,938.2283937618452,612.8075098209275
1533058269.4729998,957.5974539303107,567.2759189318581,457.82456140350877,965.3234897001078,481.27952655476764
1533058269.4770002,1018.0769309538341,523.6427469546253,525.503967387348,985.6482800480622,917.7205244630376
1533058269.481,1024.7999311873057,545.4481621362838,553.371478488753,1005.9661336075017,1013.3789092393246
1533058269.485,977.7595733612953,687.2727272727273,529.4827109266944,1026.2909239554558,624.7640426508851
1533058269.4889998,934.0772750173056,720.0031916591308,485.6920725049137,1009.3582231911705,651.6708331207592
1533058269.4929998,920.6381558197927,600.0063833182616,521.5170706850113,989.0334328432162,938.64598744962
1533058269.4970002,987.8406330767876,567.2759189318581,569.2946058091286,995.8106752220394,851.9565328299576
1533058269.5010002,1028.1579906693264,621.8117984999202,549.3845817864162,989.0334328432162,726.4037549104637
1533058269.504,967.678513645803,665.444970477153,577.2520928878212,989.0334328432162,723.4161522371307
1533058269.508,856.8006193142487,709.1004840683016,565.3077091067919,992.4185856383704,986.4721187694505
1533058269.512,863.51673827829,741.8086068407894,493.64955958360633,995.8106752220394,1064.1987653691137
1533058269.516,977.7595733612953,665.444970477153,493.64955958360633,1016.1285287814787,627.7577674608439
1533058269.52,1024.7999311873057,610.9090909090909,489.67081604426005,1033.0681663342789,532.0993826845569
1533058269.524,994.5567520408289,676.370019681898,541.4270947077237,1050.0008670985644,666.6149686240498
1533058269.5279999,987.8406330767876,741.8086068407894,565.3077091067919,1060.1632622725415,774.2298862302944
1533058269.532,1051.6781695823315,840.0,501.6151998252894,1083.8732054156499,887.8261313198307
1533058269.536,1128.9548252853883,850.9027075908293,553.371478488753,1141.455486875844,875.8695984898729
1533058269.54,1172.637123629378,840.0,605.1196039892262,1205.8080739263462,705.4782919238814
1533058269.544,1115.5157060878755,872.7304643864036,613.0852442309092,1202.422921131192,639.7143002908015
1533058269.5470002,1001.2797522743006,916.3636363636364,609.0983475285725,1127.9079389067126,851.9565328299576
1533058269.551,964.3204541637824,927.2663439544657,585.2177331295043,1124.515849323044,1007.3975817560329
1533058269.555,1024.7999311873057,763.6363636363636,581.238989590158,1117.7455437327355,837.0062751900414
1533058269.559,1098.718527408342,589.0813341135167,537.440198005387,1080.4880526204956,902.7763889597469
1533058269.563,994.5567520408289,436.3540613862439,557.3502220280993,1046.6157143034104,1396.0124483444722
1533058269.5670002,870.2397385117616,316.35725304537476,613.0852442309092,1063.5484150676957,1348.1801948880159
1533058269.571,826.5574401677719,261.82137347731265,553.371478488753,1012.7433759863246,535.08698535789
1533058269.575,860.1586787962693,239.9936166817384,601.1408604498799,965.3234897001078,430.4596704249783
1533058269.579,957.5974539303107,294.5518378637162,648.9102424110067,995.8106752220394,726.4037549104637
1533058269.583,897.1179769067875,469.08452577264745,605.1196039892262,995.8106752220394,738.3602877404214
1533058269.586,850.0776190807771,578.1786265226874,589.1964766688506,1009.3582231911705,884.8385286464976
1533058269.59,860.1586787962693,480.0095749773924,561.3289655674456,951.7759417309765,1297.3664608948523
1533058269.5939999,913.915155586321,349.0877174317783,525.503967387348,958.5462473212848,1234.5900719351052
1533058269.5979998,1014.7188714718134,403.6459386137561,537.440198005387,1036.453319129433,938.64598744962
1533058269.6020002,1007.9958712383418,490.9122825682217,573.2733493484749,1036.453319129433,1013.3789092393246
1533058269.606,971.0365731278237,490.9122825682217,517.538327145665,961.9383369049536,917.7205244630376
1533058269.61,971.0365731278237,414.54864620458534,406.0682827400451,948.3907889358223,986.4721187694505
1533058269.6139998,1014.7188714718134,403.6459386137561,457.82456140350877,944.9986993521535,762.2733534003368
1533058269.6179998,1128.9548252853883,469.08452577264745,509.57268690398195,975.4858848740852,520.1428498545993
1533058269.6220002,1105.4415276418135,480.0095749773924,449.8589211618257,1029.67607675061,678.5715014540075
1533058269.6260002,1004.6378117563212,425.45135379541466,465.78204848220133,1002.5809808123474,896.7950614764553
1533058269.629,997.9216927922798,501.81499015905104,362.27764431826455,975.4858848740852,828.0434671700424
1533058269.633,1038.2390503848187,610.9090909090909,354.3120040765815,1026.2909239554558,759.2857507270037
1533058269.637,1115.5157060878755,654.5422628863238,425.97830676275754,1060.1632622725415,965.5466557828682
1533058269.641,1125.5967658033678,687.2727272727273,461.80330494285505,1090.6435110059583,842.987602673333
1533058269.645,1011.3608119897928,665.444970477153,497.6364562859431,1073.7108102416728,735.3726850670885
1533058269.649,944.1583347327978,665.444970477153,402.0895392006988,1033.0681663342789,1156.8634253354421
1533058269.6529999,1007.9958712383418,720.0031916591308,350.3332605372352,1043.230561508256,1079.1429008724044
1533058269.657,1122.238706321347,785.4417788180223,406.0682827400451,1083.8732054156499,854.9441355032907
1533058269.661,1175.9951831113988,796.3668280227672,398.11079566135254,1107.5831485587582,956.5838477628693
1533058269.665,1118.8806468393263,905.460928772807,445.88017762247944,1121.1306965278895,1243.55900209173
1533058269.669,1034.880990902798,916.3636363636364,429.9570503021038,1090.6435110059583,1312.310596398143
1533058269.6720002,1041.5971098668392,840.0,374.2220280992939,1043.230561508256,875.8695984898729
1533058269.676,1139.0358850008806,752.7336560455343,433.9357938414501,1050.0008670985644,860.9254629865823
1533058269.68,1149.116944716373,785.4417788180223,473.7476887238844,1033.0681663342789,729.3913575837968
1533058269.684,1051.6781695823315,861.8054151816586,481.7133289655674,1029.67607675061,890.8137339931636
1533058269.688,1004.6378117563212,807.2695356135964,477.72643226323066,1012.7433759863246,1067.1863680424467
1533058269.6920002,984.4756923253366,840.0,517.538327145665,1033.0681663342789,831.0310698433753
1533058269.696,1034.880990902798,785.4417788180223,581.238989590158,1053.3860198937184,786.1925411968778
1533058269.7,1091.9955271748702,796.3668280227672,585.2177331295043,1012.7433759863246,687.5404316106321
1533058269.704,1021.441871705285,829.0972924091707,521.5170706850113,992.4185856383704,699.4969644405897
1533058269.708,937.4353344993262,720.0031916591308,445.88017762247944,955.1610945261307,538.0745880312229
1533058269.711,897.1179769067875,763.6363636363636,457.82456140350877,938.2283937618452,810.105606856793
1533058269.715,987.8406330767876,818.1722432044257,481.7133289655674,931.4511513830222,1216.652211621856
1533058269.7189999,1075.1983484953366,741.8086068407894,453.8458178641625,948.3907889358223,956.5838477628693
1533058269.7229998,1018.0769309538341,763.6363636363636,489.67081604426005,961.9383369049536,863.9130656599153
1533058269.7270002,984.4756923253366,763.6363636363636,529.4827109266944,992.4185856383704,1073.1676955257385
1533058269.731,960.9555134123314,698.1754348635566,493.64955958360633,1019.5206183651476,1076.1552981990715
1533058269.735,984.4756923253366,741.8086068407894,501.6151998252894,995.8106752220394,840.0
1533058269.7389998,1048.3201101003108,763.6363636363636,573.2733493484749,1016.1285287814787,657.6460384674251
1533058269.7429998,1014.7188714718134,741.8086068407894,668.8202664337191,1026.2909239554558,950.6025202795776
1533058269.7470002,950.8813349662695,709.1004840683016,640.9527553323142,1012.7433759863246,1109.0372940156115
1533058269.7510002,907.1990366222798,665.444970477153,644.9314988716604,1019.5206183651476,890.8137339931636
1533058269.754,964.3204541637824,676.370019681898,740.4784159569047,1019.5206183651476,840.0
1533058269.758,1085.279408210829,589.0813341135167,748.4359030355973,1053.3860198937184,1067.1863680424467
1533058269.762,1071.8402890133161,545.4481621362838,712.6109048554997,1070.3256574465186,1150.888219988776
1533058269.766,1004.6378117563212,632.7368477046651,740.4784159569047,1087.258358210804,717.434824753839
1533058269.77,994.5567520408289,687.2727272727273,756.4015432772803,1110.9683013539125,561.9876536911382
1533058269.774,1058.401169815803,709.1004840683016,764.3590303559729,1073.7108102416728,1001.4223764093668
1533058269.7779999,1149.116944716373,687.2727272727273,796.2134381597147,1107.5831485587582,965.5466557828682
1533058269.782,1128.9548252853883,676.370019681898,768.3459270583097,1151.617882049821,696.5093617672568
1533058269.786,1004.6378117563212,720.0031916591308,696.6877775351242,1114.353454149067,971.5279832661599
1533058269.79,940.8002752507772,720.0031916591308,581.238989590158,1063.5484150676957,1225.6211417784807
1533058269.794,950.8813349662695,752.7336560455343,533.4614544660407,1026.2909239554558,998.4347737360339
1533058269.7970002,1058.401169815803,959.9968083408692,537.440198005387,1070.3256574465186,780.2112137135861
1533058269.801,1105.4415276418135,1189.0877174317782,545.4058382470699,1073.7108102416728,729.3913575837968
1533058269.805,1001.2797522743006,1232.720889409011,629.0083715512849,1060.1632622725415,953.5901229529105
1533058269.809,944.1583347327978,1189.0877174317782,573.2733493484749,1050.0008670985644,708.4658945972144
1533058269.813,950.8813349662695,1145.4545454545453,513.5595836063187,1016.1285287814787,747.3292178970461
1533058269.8170002,1048.3201101003108,1178.185009840949,537.440198005387,1036.453319129433,881.8509259731646
1533058269.821,1081.9213487288084,1254.5486462045853,565.3077091067919,1087.258358210804,370.67088413856436
1533058269.825,1011.3608119897928,1287.2567689770733,597.1621169105335,1087.258358210804,469.32299372481
1533058269.829,950.8813349662695,1352.7176977498802,573.2733493484749,1009.3582231911705,902.7763889597469
1533058269.833,900.4760363888081,1363.6204053407093,549.3845817864162,972.1007320789307,1064.1987653691137
1533058269.836,907.1990366222798,1243.6235969998404,597.1621169105335,961.9383369049536,1103.0559665323199
1533058269.84,981.117632843316,1112.724081068142,632.9871150906312,989.0334328432162,804.1242793735014
1533058269.8439999,947.5163942148184,1090.8963242725677,656.8758826526898,1005.9661336075017,854.9441355032907
1533058269.8479998,893.7599174247669,1112.724081068142,545.4058382470699,989.0334328432162,923.6957298097036
1533058269.8520002,917.2800963377721,1025.4577371136763,473.7476887238844,1009.3582231911705,947.6149176062446
1533058269.856,1007.9958712383418,1025.4577371136763,525.503967387348,1053.3860198937184,920.7081271363706
1533058269.86,1105.4415276418135,1003.6299803181021,553.371478488753,1107.5831485587582,1040.2795775725729
1533058269.8639998,1038.2390503848187,949.0941007500398,553.371478488753,1036.453319129433,941.6335901229529
1533058269.8679998,937.4353344993262,1003.6299803181021,553.371478488753,1005.9661336075017,358.7143513086067
1533058269.8720002,967.678513645803,1069.090909090909,557.3502220280993,1019.5206183651476,798.1490740268354
1533058269.8760002,1028.1579906693264,1112.724081068142,593.1752202081968,1012.7433759863246,1479.7143002908015
1533058269.879,1058.401169815803,1079.9936166817383,565.3077091067919,1036.453319129433,1010.3913065659915
1533058269.883,1018.0769309538341,959.9968083408692,533.4614544660407,1036.453319129433,717.434824753839
1533058269.887,957.5974539303107,807.2695356135964,549.3845817864162,1060.1632622725415,938.64598744962
1533058269.891,920.6381558197927,720.0031916591308,469.7689451845381,1026.2909239554558,947.6149176062446
1533058269.895,977.7595733612953,687.2727272727273,497.6364562859431,978.8710376692391,1228.6087444518137
1533058269.899,1085.279408210829,720.0031916591308,441.90143408313315,968.7086424952622,1040.2795775725729
1533058269.9029999,1028.1579906693264,861.8054151816586,429.9570503021038,972.1007320789307,645.6895056374675
1533058269.907,964.3204541637824,872.7304643864036,569.2946058091286,1012.7433759863246,789.1801438702107
1533058269.911,944.1583347327978,774.539071227193,517.538327145665,1005.9661336075017,696.5093617672568
1533058269.915,984.4756923253366,807.2695356135964,477.72643226323066,978.8710376692391,520.1428498545993
1533058269.918,1075.1983484953366,840.0,529.4827109266944,1029.67607675061,851.9565328299576
1533058269.9220002,1041.5971098668392,796.3668280227672,505.59394336463566,1063.5484150676957,935.6583847762869
1533058269.926,957.5974539303107,720.0031916591308,437.9145373807964,1039.838471924587,553.0248456711392
1533058269.93,920.6381558197927,687.2727272727273,429.9570503021038,1039.838471924587,529.1056578745983
1533058269.934,947.5163942148184,730.9058992499602,477.72643226323066,1009.3582231911705,642.7019029641344
1533058269.938,1028.1579906693264,752.7336560455343,545.4058382470699,968.7086424952622,708.4658945972144
1533058269.9420002,1018.0769309538341,741.8086068407894,597.1621169105335,982.2561904643932,684.5528289372991
1533058269.946,950.8813349662695,785.4417788180223,545.4058382470699,955.1610945261307,798.1490740268354
1533058269.95,923.9962153018133,752.7336560455343,485.6920725049137,944.9986993521535,840.0
1533058269.954,957.5974539303107,709.1004840683016,533.4614544660407,941.6135465569994,570.9565838477629
1533058269.958,1058.401169815803,643.6395552954946,549.3845817864162,989.0334328432162,723.4161522371307
1533058269.961,1058.401169815803,610.9090909090909,525.503967387348,1033.0681663342789,642.7019029641344
1533058269.965,984.4756923253366,687.2727272727273,541.4270947077237,1016.1285287814787,672.5962961073415
1533058269.9689999,950.8813349662695,730.9058992499602,509.57268690398195,958.5462473212848,914.7329217897046
1533058269.9729998,937.4353344993262,676.370019681898,465.78204848220133,917.9036034138909,1007.3975817560329
1533058269.9770002,1048.3201101003108,774.539071227193,501.6151998252894,961.9383369049536,1144.9068925054844
1533058269.981,1108.7995871238343,840.0,505.59394336463566,989.0334328432162,884.8385286464976
1533058269.985,997.9216927922798,785.4417788180223,545.4058382470699,1019.5206183651476,872.88199581654
1533058269.9889998,947.5163942148184,763.6363636363636,517.538327145665,992.4185856383704,902.7763889597469
1533058269.9929998,1001.2797522743006,829.0972924091707,473.7476887238844,955.1610945261307,929.6770572929953
1533058269.9970002,1102.0765868903625,850.9027075908293,477.72643226323066,982.2561904643932,896.7950614764553
1533058270.0010002,1132.3197660368394,818.1722432044257,505.59394336463566,1009.3582231911705,807.11800418346
1533058270.004,1068.475348261865,850.9027075908293,501.6151998252894,1002.5809808123474,998.4347737360339
1533058270.008,1014.7188714718134,785.4417788180223,425.97830676275754,985.6482800480622,1180.782613131983
1533058270.012,984.4756923253366,741.8086068407894,453.8458178641625,934.843240966691,944.6211927962859
1533058270.016,1068.475348261865,774.539071227193,529.4827109266944,928.0659985878681,956.5838477628693
1533058270.02,1169.2790641473575,774.539071227193,585.2177331295043,999.1958280171933,857.9317381766236
1533058270.024,1128.9548252853883,807.2695356135964,625.0296280119386,1022.9057711603017,777.2236110402531
1533058270.0279999,1065.1172887798443,861.8054151816586,569.2946058091286,999.1958280171933,729.3913575837968
1533058270.032,1014.7188714718134,916.3636363636364,501.6151998252894,989.0334328432162,496.22366205805827
1533058270.036,1048.3201101003108,1079.9936166817383,541.4270947077237,1016.1285287814787,935.6583847762869
1533058270.04,1142.4008257523317,1145.4545454545453,517.538327145665,1053.3860198937184,1126.9751543288608
1533058270.043,1122.238706321347,1145.4545454545453,493.64955958360633,1050.0008670985644,1112.0248966889444
1533058270.0470002,1038.2390503848187,1101.8213734773128,513.5595836063187,1046.6157143034104,917.7205244630376
1533058270.051,971.0365731278237,1025.4577371136763,489.67081604426005,1036.453319129433,561.9876536911382
1533058270.055,1021.441871705285,1090.8963242725677,465.78204848220133,1033.0681663342789,717.434824753839
1533058270.059,1155.8399449498445,1014.5326879089313,509.57268690398195,1033.0681663342789,842.987602673333
1533058270.063,1098.718527408342,927.2663439544657,585.2177331295043,1022.9057711603017,795.1553492168767
1533058270.0670002,974.4015138792747,1025.4577371136763,553.371478488753,1026.2909239554558,890.8137339931636
1533058270.071,984.4756923253366,1003.6299803181021,453.8458178641625,1002.5809808123474,893.8074588031222
1533058270.075,1048.3201101003108,905.460928772807,418.0126665210745,1033.0681663342789,451.3851334115606
1533058270.079,1108.7995871238343,785.4417788180223,493.64955958360633,1066.9405046513648,810.105606856793
1533058270.083,1031.516050151347,687.2727272727273,505.59394336463566,982.2561904643932,732.3789602571297
1533058270.086,900.4760363888081,785.4417788180223,517.538327145665,941.6135465569994,466.3292689148513
1533058270.09,900.4760363888081,861.8054151816586,489.67081604426005,978.8710376692391,406.546604765063
1533058270.0939999,950.8813349662695,818.1722432044257,469.7689451845381,1009.3582231911705,388.60874445181366
1533058270.0979998,1041.5971098668392,927.2663439544657,481.7133289655674,1043.230561508256,801.1366767001683
1533058270.1020002,1098.718527408342,1112.724081068142,549.3845817864162,1053.3860198937184,708.4658945972144
1533058270.106,1028.1579906693264,1079.9936166817383,581.238989590158,1029.67607675061,684.5528289372991
1533058270.11,964.3204541637824,927.2663439544657,477.72643226323066,1002.5809808123474,735.3726850670885
1533058270.1139998,1028.1579906693264,916.3636363636364,437.9145373807964,1009.3582231911705,959.5714504362022
1533058270.1179998,1091.9955271748702,905.460928772807,449.8589211618257,1090.6435110059583,774.2298862302944
1533058270.1220002,1091.9955271748702,894.5358795680621,461.80330494285505,1117.7455437327355,559.0000510178052
1533058270.125,1088.6374676928497,927.2663439544657,461.80330494285505,1114.353454149067,813.093209530126
1533058270.129,1024.7999311873057,949.0941007500398,513.5595836063187,1114.353454149067,845.975205346666
1533058270.133,1021.441871705285,905.460928772807,577.2520928878212,1080.4880526204956,759.2857507270037
1533058270.137,1128.9548252853883,807.2695356135964,537.440198005387,1117.7455437327355,881.8509259731646
1533058270.141,1145.7588852343522,796.3668280227672,529.4827109266944,1151.617882049821,1100.0683638589867
1533058270.145,1091.9955271748702,883.6331719772328,557.3502220280993,1131.293091701867,834.0186725167083
1533058270.149,1007.9958712383418,861.8054151816586,513.5595836063187,1141.455486875844,535.08698535789
1533058270.1529999,954.2393944482901,785.4417788180223,481.7133289655674,1100.8059061799354,681.5652262639661
1533058270.157,1018.0769309538341,752.7336560455343,441.90143408313315,1083.8732054156499,890.8137339931636
1533058270.161,1068.475348261865,763.6363636363636,414.03392298172815,1110.9683013539125,962.5590531095353
1533058270.165,1001.2797522743006,796.3668280227672,461.80330494285505,1073.7108102416728,1004.4099790826998
1533058270.168,960.9555134123314,741.8086068407894,445.88017762247944,1053.3860198937184,953.5901229529105
1533058270.1720002,960.9555134123314,654.5422628863238,433.9357938414501,1026.2909239554558,869.8882710065812
1533058270.176,1001.2797522743006,643.6395552954946,517.538327145665,1019.5206183651476,1118.0062241722362
1533058270.18,1071.8402890133161,676.370019681898,561.3289655674456,989.0334328432162,1219.6398142951891
1533058270.184,1038.2390503848187,709.1004840683016,629.0083715512849,968.7086424952622,1010.3913065659915
1533058270.188,954.2393944482901,600.0063833182616,609.0983475285725,985.6482800480622,968.5403805928269
1533058270.1920002,890.4018579427462,654.5422628863238,529.4827109266944,961.9383369049536,938.64598744962
1533058270.196,947.5163942148184,676.370019681898,481.7133289655674,931.4511513830222,819.0745370134177
1533058270.2,1007.9958712383418,567.2759189318581,461.80330494285505,955.1610945261307,980.4969134227846
1533058270.204,937.4353344993262,621.8117984999202,537.440198005387,1012.7433759863246,1076.1552981990715
1533058270.208,887.0369171912952,643.6395552954946,561.3289655674456,985.6482800480622,1118.0062241722362
1533058270.211,870.2397385117616,687.2727272727273,453.8458178641625,931.4511513830222,866.9006683332483
1533058270.215,903.8409771402592,730.9058992499602,418.0126665210745,928.0659985878681,684.5528289372991
1533058270.2189999,1011.3608119897928,665.444970477153,418.0126665210745,924.6808457927139,514.1615223713076
1533058270.2229998,964.3204541637824,600.0063833182616,433.9357938414501,904.3560554447597,436.44099790827
1533058270.2270002,897.1179769067875,643.6395552954946,497.6364562859431,972.1007320789307,783.198816386919
1533058270.231,900.4760363888081,643.6395552954946,425.97830676275754,995.8106752220394,1082.1305035457374
1533058270.235,930.7192155352849,556.3732113410288,390.1451554196695,944.9986993521535,1091.0994337023621
1533058270.2389998,1034.880990902798,523.6427469546253,457.82456140350877,951.7759417309765,848.962808019999
1533058270.2429998,1004.6378117563212,501.81499015905104,477.72643226323066,958.5462473212848,774.2298862302944
1533058270.2470002,850.0776190807771,490.9122825682217,433.9357938414501,900.9709026496056,606.8323044742615
1533058270.25,843.3615001167358,556.3732113410288,378.20077163864016,846.7737739845658,615.8012346308861
1533058270.254,897.1179769067875,567.2759189318581,402.0895392006988,833.2262260154345,863.9130656599153
1533058270.258,981.117632843316,621.8117984999202,453.8458178641625,850.1658635682346,854.9441355032907
1533058270.262,1031.516050151347,720.0031916591308,489.67081604426005,938.2283937618452,657.6460384674251
1533058270.266,944.1583347327978,807.2695356135964,529.4827109266944,975.4858848740852,947.6149176062446
1533058270.27,880.3207982272539,850.9027075908293,501.6151998252894,924.6808457927139,1007.3975817560329
1533058270.274,873.5977979937823,861.8054151816586,481.7133289655674,917.9036034138909,720.4224274271721
1533058270.2779999,957.5974539303107,883.6331719772328,529.4827109266944,958.5462473212848,1109.0372940156115
1533058270.282,1044.95516934886,883.6331719772328,605.1196039892262,982.2561904643932,1085.1242283556962
1533058270.286,967.678513645803,894.5358795680621,664.8333697313824,1002.5809808123474,813.093209530126
1533058270.29,900.4760363888081,894.5358795680621,648.9102424110067,1026.2909239554558,1183.770215805316
1533058270.293,954.2393944482901,807.2695356135964,672.7990099730655,1036.453319129433,1306.3292689148514
1533058270.2970002,1021.441871705285,720.0031916591308,632.9871150906312,1046.6157143034104,887.8261313198307
1533058270.301,1085.279408210829,807.2695356135964,597.1621169105335,1066.9405046513648,735.3726850670885
1533058270.305,1011.3608119897928,829.0972924091707,629.0083715512849,1029.67607675061,717.434824753839
1533058270.309,927.3611560532643,709.1004840683016,541.4270947077237,995.8106752220394,556.0124483444722
1533058270.313,930.7192155352849,741.8086068407894,541.4270947077237,995.8106752220394,690.5341564205908
1533058270.3170002,981.117632843316,763.6363636363636,640.9527553323142,989.0334328432162,660.6397632773838
1533058270.321,1031.516050151347,709.1004840683016,621.0427313096018,951.7759417309765,615.8012346308861
1533058270.325,987.8406330767876,720.0031916591308,577.2520928878212,965.3234897001078,783.198816386919
1533058270.329,957.5974539303107,752.7336560455343,577.2520928878212,999.1958280171933,801.1366767001683
1533058270.333,957.5974539303107,709.1004840683016,525.503967387348,1002.5809808123474,657.6460384674251
1533058270.336,974.4015138792747,676.370019681898,453.8458178641625,1009.3582231911705,639.7143002908015
1533058270.34,1102.0765868903625,883.6331719772328,402.0895392006988,1077.095963036827,875.8695984898729
1533058270.3439999,1172.637123629378,981.8245651364434,477.72643226323066,1195.6456787523691,887.8261313198307
1533058270.3479998,981.117632843316,796.3668280227672,561.3289655674456,1114.353454149067,789.1801438702107
1533058270.3520002,846.7195595987564,665.444970477153,557.3502220280993,978.8710376692391,573.9503086577215
1533058270.356,890.4018579427462,501.81499015905104,593.1752202081968,985.6482800480622,556.0124483444722
1533058270.36,920.6381558197927,414.54864620458534,652.8971391133435,961.9383369049536,953.5901229529105
1533058270.3639998,863.51673827829,359.9904250226076,728.5340321758754,928.0659985878681,1210.67700627519
1533058270.3679998,752.6388439467357,316.35725304537476,768.3459270583097,948.3907889358223,1180.782613131983
1533058270.3720002,708.9565456027459,305.45454545454544,708.6321613161534,921.2887562090451,968.5403805928269
1533058270.375,719.0376053182382,207.2854939092505,744.457159496251,873.8688699228284,786.1925411968778
1533058270.379,803.0372612547667,54.558221181977764,748.4359030355973,897.5788130659367,756.2981480536707
1533058270.383,836.6384998832642,54.558221181977764,688.722137293441,921.2887562090451,819.0745370134177
1533058270.387,715.6795458362176,65.46092877280707,708.6321613161534,867.09856433252,947.6149176062446
1533058270.391,698.8754858872537,130.92185754561413,700.6665210744704,846.7737739845658,992.4534462527422
1533058270.395,755.9969034287564,261.82137347731265,688.722137293441,870.4837171276741,1025.3354420692822
1533058270.399,866.881679029741,261.82137347731265,744.457159496251,938.2283937618452,780.2112137135861
1533058270.4029999,890.4018579427462,272.7240810681419,780.290310839339,989.0334328432162,825.0497423600837
1533058270.407,789.5981420572538,294.5518378637162,696.6877775351242,941.6135465569994,1052.2422325391562
1533058270.411,755.9969034287564,316.35725304537476,617.0639877702555,900.9709026496056,711.4596194071731
1533058270.415,806.4022020062177,447.27911059098886,632.9871150906312,890.8085074756285,1037.29197489924
1533058270.418,903.8409771402592,512.7176977498804,585.2177331295043,965.3234897001078,920.7081271363706
1533058270.4220002,920.6381558197927,490.9122825682217,577.2520928878212,1060.1632622725415,684.5528289372991
1533058270.426,866.881679029741,534.5454545454545,601.1408604498799,1043.230561508256,1103.0559665323199
1533058270.43,863.51673827829,501.81499015905104,573.2733493484749,1022.9057711603017,983.4845160961175
1533058270.434,887.0369171912952,480.0095749773924,593.1752202081968,1029.67607675061,923.6957298097036
1533058270.438,971.0365731278237,501.81499015905104,533.4614544660407,1070.3256574465186,854.9441355032907
1533058270.4420002,1004.6378117563212,567.2759189318581,517.538327145665,1060.1632622725415,890.8137339931636
1533058270.446,947.5163942148184,643.6395552954946,537.440198005387,1063.5484150676957,992.4534462527422
1533058270.45,903.8409771402592,621.8117984999202,437.9145373807964,1070.3256574465186,732.3789602571297
1533058270.454,887.0369171912952,730.9058992499602,433.9357938414501,1026.2909239554558,932.6646599663283
1533058270.457,987.8406330767876,861.8054151816586,453.8458178641625,1026.2909239554558,1034.304372225907
1533058270.461,1075.1983484953366,850.9027075908293,477.72643226323066,1083.8732054156499,819.0745370134177
1533058270.465,1028.1579906693264,774.539071227193,469.7689451845381,1100.8059061799354,905.76399163308
1533058270.4689999,1007.9958712383418,698.1754348635566,402.0895392006988,1073.7108102416728,831.0310698433753
1533058270.4729998,991.1986925588083,654.5422628863238,394.1238989590158,1019.5206183651476,1085.1242283556962
1533058270.4770002,1044.95516934886,600.0063833182616,394.1238989590158,989.0334328432162,1401.9937758277638
1533058270.481,1125.5967658033678,589.0813341135167,441.90143408313315,1053.3860198937184,989.4658435794092
1533058270.485,1048.3201101003108,490.9122825682217,489.67081604426005,1080.4880526204956,630.7453701341768
1533058270.4889998,987.8406330767876,436.3540613862439,497.6364562859431,1056.7781094773875,681.5652262639661
1533058270.4929998,960.9555134123314,545.4481621362838,557.3502220280993,1060.1632622725415,944.6211927962859
1533058270.4970002,1024.7999311873057,523.6427469546253,533.4614544660407,1083.8732054156499,1150.888219988776
1533058270.5,1102.0765868903625,469.08452577264745,493.64955958360633,1110.9683013539125,950.6025202795776
1533058270.504,987.8406330767876,567.2759189318581,553.371478488753,1063.5484150676957,771.2422835569614
1533058270.508,893.7599174247669,567.2759189318581,609.0983475285725,1033.0681663342789,1174.8012856486914
1533058270.512,900.4760363888081,480.0095749773924,521.5170706850113,1022.9057711603017,947.6149176062446
1533058270.516,977.7595733612953,469.08452577264745,469.7689451845381,1009.3582231911705,777.2236110402531
1533058270.52,1031.516050151347,403.6459386137561,509.57268690398195,1012.7433759863246,896.7950614764553
1533058270.524,1031.516050151347,359.9904250226076,493.64955958360633,1026.2909239554558,986.4721187694505
1533058270.5279999,974.4015138792747,294.5518378637162,469.7689451845381,999.1958280171933,890.8137339931636
1533058270.532,890.4018579427462,185.45773711367627,461.80330494285505,961.9383369049536,884.8385286464976
1533058270.536,964.3204541637824,316.35725304537476,433.9357938414501,961.9383369049536,929.6770572929953
1533058270.54,1125.5967658033678,403.6459386137561,433.9357938414501,972.1007320789307,666.6149686240498
1533058270.543,1085.279408210829,447.27911059098886,453.8458178641625,1005.9661336075017,573.9503086577215
1533058270.5470002,981.117632843316,556.3732113410288,481.7133289655674,1039.838471924587,848.962808019999
1533058270.551,967.678513645803,610.9090909090909,477.72643226323066,1039.838471924587,1103.0559665323199
1533058270.555,1011.3608119897928,610.9090909090909,513.5595836063187,992.4185856383704,923.6957298097036
1533058270.559,1075.1983484953366,665.444970477153,541.4270947077237,985.6482800480622,783.198816386919
1533058270.563,1095.3604679263212,785.4417788180223,557.3502220280993,1046.6157143034104,561.9876536911382
1533058270.5670002,1031.516050151347,829.0972924091707,585.2177331295043,1080.4880526204956,520.1428498545993
1533058270.571,964.3204541637824,698.1754348635566,485.6920725049137,1046.6157143034104,702.4906892505485
1533058270.575,981.117632843316,632.7368477046651,481.7133289655674,1019.5206183651476,651.6708331207592
1533058270.579,1088.6374676928497,687.2727272727273,569.2946058091286,1019.5206183651476,666.6149686240498
1533058270.582,1149.116944716373,741.8086068407894,601.1408604498799,1077.095963036827,789.1801438702107
1533058270.586,1065.1172887798443,785.4417788180223,557.3502220280993,1107.5831485587582,923.6957298097036
1533058270.59,971.0365731278237,796.3668280227672,457.82456140350877,1063.5484150676957,872.88199581654
1533058270.5939999,950.8813349662695,741.8086068407894,449.8589211618257,1033.0681663342789,866.9006683332483
1533058270.5979998,1055.0362290643523,709.1004840683016,445.88017762247944,1029.67607675061,851.9565328299576
1533058270.6020002,1095.3604679263212,698.1754348635566,461.80330494285505,1033.0681663342789,950.6025202795776
1533058270.606,1028.1579906693264,665.444970477153,521.5170706850113,1039.838471924587,986.4721187694505
1533058270.61,974.4015138792747,643.6395552954946,493.64955958360633,1019.5206183651476,875.8695984898729
1533058270.6139998,940.8002752507772,654.5422628863238,473.7476887238844,965.3234897001078,499.21738686801694
1533058270.6179998,1014.7188714718134,676.370019681898,489.67081604426005,972.1007320789307,298.9316871588184
1533058270.6220002,1095.3604679263212,687.2727272727273,581.238989590158,1039.838471924587,612.8075098209275
1533058270.625,994.5567520408289,643.6395552954946,593.1752202081968,1016.1285287814787,576.9379113310546
1533058270.629,883.6788577092746,654.5422628863238,529.4827109266944,1009.3582231911705,544.0559155145146
1533058270.633,883.6788577092746,720.0031916591308,541.4270947077237,1005.9661336075017,890.8137339931636
1533058270.637,987.8406330767876,687.2727272727273,497.6364562859431,992.4185856383704,923.6957298097036
1533058270.641,1024.7999311873057,610.9090909090909,517.538327145665,1070.3256574465186,908.7515943064129
1533058270.645,960.9555134123314,643.6395552954946,617.0639877702555,1043.230561508256,1052.2422325391562
1533058270.649,903.8409771402592,654.5422628863238,573.2733493484749,1005.9661336075017,1153.8758226621092
1533058270.6529999,856.8006193142487,600.0063833182616,489.67081604426005,989.0334328432162,723.4161522371307
1533058270.657,940.8002752507772,687.2727272727273,481.7133289655674,985.6482800480622,651.6708331207592
1533058270.661,1058.401169815803,763.6363636363636,525.503967387348,1036.453319129433,968.5403805928269
1533058270.665,1001.2797522743006,741.8086068407894,593.1752202081968,1050.0008670985644,938.64598744962
1533058270.668,923.9962153018133,709.1004840683016,529.4827109266944,1022.9057711603017,529.1056578745983
1533058270.6720002,870.2397385117616,676.370019681898,473.7476887238844,968.7086424952622,633.7329728075098
1533058270.676,900.4760363888081,654.5422628863238,489.67081604426005,917.9036034138909,974.5155859394929
1533058270.68,987.8406330767876,523.6427469546253,549.3845817864162,958.5462473212848,932.6646599663283
1533058270.684,1018.0769309538341,501.81499015905104,569.2946058091286,958.5462473212848,923.6957298097036
1533058270.688,950.8813349662695,556.3732113410288,525.503967387348,961.9383369049536,875.8695984898729
1533058270.6920002,833.2804404012436,567.2759189318581,529.4827109266944,931.4511513830222,1312.310596398143
1533058270.696,850.0776190807771,523.6427469546253,541.4270947077237,890.8085074756285,1103.0559665323199
1533058270.7,991.1986925588083,490.9122825682217,493.64955958360633,911.1332978235826,585.9068414876792
1533058270.704,991.1986925588083,534.5454545454545,521.5170706850113,887.4233546804743,762.2733534003368
1533058270.707,870.2397385117616,490.9122825682217,577.2520928878212,900.9709026496056,914.7329217897046
1533058270.711,816.4763804522796,578.1786265226874,501.6151998252894,880.6461123016513,971.5279832661599
1533058270.715,860.1586787962693,621.8117984999202,497.6364562859431,863.7134115373659,899.7826641497883
1533058270.7189999,974.4015138792747,610.9090909090909,573.2733493484749,873.8688699228284,747.3292178970461
1533058270.7229998,984.4756923253366,665.444970477153,605.1196039892262,890.8085074756285,729.3913575837968
1533058270.7270002,876.9558574758029,632.7368477046651,613.0852442309092,887.4233546804743,723.4161522371307
1533058270.731,806.4022020062177,687.2727272727273,648.9102424110067,829.8410732202804,741.3478904137544
1533058270.735,776.1590228597408,665.444970477153,708.6321613161534,795.9687349031948,1025.3354420692822
1533058270.7389998,887.0369171912952,632.7368477046651,636.9658586299774,819.6786780463032,810.105606856793
1533058270.7429998,1004.6378117563212,752.7336560455343,680.7646502147485,856.936169158543,648.6832304474261
1533058270.7470002,819.8413212037307,709.1004840683016,784.2690543786853,755.3260909958009,756.2981480536707
1533058270.75,655.2000688126943,632.7368477046651,736.4996724175584,613.0664321371503,681.5652262639661
1533058270.754,651.8420093306737,730.9058992499602,752.422799737934,572.4168514412418,911.7391969797459
1533058270.758,648.4770685792226,665.444970477153,748.4359030355973,572.4168514412418,1171.8136829753585
1533058270.762,651.8420093306737,643.6395552954946,764.3590303559729,579.1940938200648,950.6025202795776
1533058270.766,547.6802339631606,709.1004840683016,776.3034141370023,514.8415067695624,968.5403805928269
1533058270.77,440.16039911362697,730.9058992499602,708.6321613161534,470.8067732784998,977.5093107494515
1533058270.774,362.8768621411397,709.1004840683016,732.5127757152217,426.7720397874371,816.080812203459
1533058270.7779999,342.72162397958556,665.444970477153,812.1365654800902,386.1293958800432,911.7391969797459
1533058270.782,403.2011010031089,610.9090909090909,855.9272039018708,426.7720397874371,822.0621396867507
1533058270.786,356.1607431770985,621.8117984999202,875.8290747615928,352.2570575629577,878.857201163206
1533058270.789,225.1207294145596,545.4481621362838,840.0040765814953,254.0321321953698,816.080812203459
1533058270.793,211.6816102170467,469.08452577264745,808.1578219407439,260.80937457419276,783.198816386919
1533058270.7970002,309.1203853510881,621.8117984999202,756.4015432772803,237.09943143108433,962.5590531095353
1533058270.801,372.957921856632,654.5422628863238,792.2265414573778,237.09943143108433,851.9565328299576
1533058270.805,352.80268369507786,545.4481621362838,891.7522020819684,308.22232407189506,825.0497423600837
1533058270.809,332.6405642640933,512.7176977498804,851.9484603625245,413.2244918183058,1067.1863680424467
1533058270.813,282.2421469560623,545.4481621362838,780.290310839339,369.1966951157578,1126.9751543288608
1533058270.8170002,346.0796834616062,610.9090909090909,688.722137293441,304.83717127674083,878.857201163206
1533058270.821,483.83581618818636,665.444970477153,668.8202664337191,392.9066382588662,588.8944441610122
1533058270.825,470.39669699067343,687.2727272727273,724.5552886365291,460.6443781045227,567.9689811744299
1533058270.829,436.80233963160634,818.1722432044257,712.6109048554997,447.0968301353914,875.8695984898729
1533058270.832,419.9982796826424,840.0,720.5683919341923,416.61658140197466,795.1553492168767
1533058270.836,507.3559951011915,785.4417788180223,700.6665210744704,474.191926073654,926.6894546196622
1533058270.84,675.3621882436788,785.4417788180223,613.0852442309092,511.44941718589354,837.0062751900414
1533058270.8439999,651.8420093306737,741.8086068407894,632.9871150906312,538.5514499126709,621.7764399775522
1533058270.8479998,577.9165318402071,698.1754348635566,652.8971391133435,606.2891897583274,1058.2174378858222
1533058270.8520002,537.5991742476683,578.1786265226874,585.2177331295043,609.6812793419962,1100.0683638589867
1533058270.856,608.1597109866839,534.5454545454545,533.4614544660407,633.3912224851047,854.9441355032907
1533058270.86,782.8820230932125,578.1786265226874,561.3289655674456,677.4190191876527,705.4782919238814
1533058270.8639998,829.9154996497925,632.7368477046651,565.3077091067919,748.5488486169779,559.0000510178052
1533058270.8679998,782.8820230932125,578.1786265226874,513.5595836063187,799.3538876983489,902.7763889597469
1533058270.8720002,786.2400825752331,534.5454545454545,513.5595836063187,819.6786780463032,837.0062751900414
1533058270.875,866.881679029741,654.5422628863238,485.6920725049137,880.6461123016513,869.8882710065812
1533058270.879,971.0365731278237,676.370019681898,433.9357938414501,938.2283937618452,1058.2174378858222
1533058270.883,1065.1172887798443,687.2727272727273,497.6364562859431,995.8106752220394,932.6646599663283
1533058270.887,1048.3201101003108,621.8117984999202,489.67081604426005,1039.838471924587,1028.3230447426151
1533058270.891,1041.5971098668392,545.4481621362838,433.9357938414501,1039.838471924587,1022.3478393959492
1533058270.895,1088.6374676928497,730.9058992499602,525.503967387348,1094.035600589627,971.5279832661599
1533058270.899,1199.5153620244039,840.0,465.78204848220133,1171.9357356092605,911.7391969797459
1533058270.9029999,1293.5960776764248,829.0972924091707,437.9145373807964,1202.422921131192,845.975205346666
1533058270.907,1256.6367795659066,872.7304643864036,414.03392298172815,1249.842807417409,741.3478904137544
1533058270.911,1202.880302775855,829.0972924091707,350.3332605372352,1239.6804122434316,1004.4099790826998
1533058270.914,1206.2383622578757,861.8054151816586,342.3757734585426,1239.6804122434316,1097.0807611856537
1533058270.918,1283.5150179609325,905.460928772807,302.5638785761083,1293.8706041199569,872.88199581654
1533058270.9220002,1367.5146738974609,872.7304643864036,342.3757734585426,1324.3577896418883,1037.29197489924
1533058270.926,1337.2783760204145,796.3668280227672,378.20077163864016,1341.2904904061738,1040.2795775725729
1533058270.93,1273.4408395148705,687.2727272727273,350.3332605372352,1341.2904904061738,816.080812203459
1533058270.934,1226.40048168886,687.2727272727273,306.5426221154546,1280.3230561508256,687.5404316106321
1533058270.938,1263.3597797993782,796.3668280227672,270.71762393535704,1249.842807417409,753.3044232437121
1533058270.9420002,1327.1973163049222,872.7304643864036,290.619494795079,1310.810241672757,819.0745370134177
1533058270.946,1286.8799587123833,840.0,334.41013321685955,1314.1953944679112,1183.770215805316
1533058270.95,1266.717839281399,796.3668280227672,266.73072723302033,1293.8706041199569,1246.546604765063
1533058270.954,1236.4815414043524,741.8086068407894,230.90572905292277,1273.5527505605173,866.9006683332483
1533058270.957,1280.1569584789117,643.6395552954946,230.90572905292277,1263.3903553865403,848.962808019999
1533058270.961,1360.7985549334196,567.2759189318581,234.88447259226905,1310.810241672757,929.6770572929953
1533058270.965,1320.481197340881,600.0063833182616,242.8501128339521,1283.7151457344944,672.5962961073415
1533058270.9689999,1286.8799587123833,741.8086068407894,218.96134527189344,1287.1002985296486,1100.0683638589867
1533058270.9729998,1216.3194219733678,796.3668280227672,207.01696149086408,1287.1002985296486,1028.3230447426151
1533058270.9770002,1233.1166006529013,818.1722432044257,234.88447259226905,1280.3230561508256,834.0186725167083
1533058270.981,1380.9606743644042,959.9968083408692,262.751983693674,1351.452885580151,1058.2174378858222
1533058270.985,1367.5146738974609,1025.4577371136763,330.43138967751327,1365.0004335492822,920.7081271363706
1533058270.9889998,1276.7988989968912,927.2663439544657,390.1451554196695,1365.0004335492822,923.6957298097036
1533058270.9929998,1273.4408395148705,949.0941007500398,378.20077163864016,1385.3252238972364,893.8074588031222
1533058270.9970002,1340.636435502435,992.7272727272727,350.3332605372352,1419.197562214322,825.0497423600837
1533058271.0,1438.0752106364764,905.460928772807,406.0682827400451,1436.1302629786073,866.9006683332483
1533058271.004,1394.399793561917,785.4417788180223,485.6920725049137,1409.035167040345,633.7329728075098
1533058271.008,1303.6771373919169,720.0031916591308,425.97830676275754,1381.9400711020824,705.4782919238814
1533058271.012,1249.9206606018654,730.9058992499602,322.4657494358302,1361.615280754128,986.4721187694505
1533058271.016,1270.0758987634194,709.1004840683016,374.2220280992939,1378.5479815184135,1162.8447528187337
1533058271.02,1370.879614648912,698.1754348635566,485.6920725049137,1395.4876190712137,1213.664608948523
1533058271.024,1411.1969722414506,698.1754348635566,513.5595836063187,1415.8054726306532,1177.7888883220244
1533058271.0279999,1303.6771373919169,632.7368477046651,433.9357938414501,1388.7103766923906,1064.1987653691137
1533058271.032,1199.5153620244039,621.8117984999202,338.3888767562059,1324.3577896418883,1082.1305035457374
1533058271.036,1202.880302775855,698.1754348635566,342.3757734585426,1287.1002985296486,887.8261313198307
1533058271.039,1290.238018194404,752.7336560455343,370.2432845599476,1246.45071783374,872.88199581654
1533058271.043,1340.636435502435,774.539071227193,441.90143408313315,1256.6131130077174,834.0186725167083
1533058271.0470002,1263.3597797993782,774.539071227193,473.7476887238844,1276.9379033556718,636.7266976174685
1533058271.051,1202.880302775855,785.4417788180223,429.9570503021038,1219.3556218954775,869.8882710065812
1533058271.055,1206.2383622578757,763.6363636363636,445.88017762247944,1219.3556218954775,851.9565328299576
1533058271.059,1307.0351968739376,763.6363636363636,461.80330494285505,1215.9704691003233,618.7888373042192
1533058271.063,1330.5553757869427,785.4417788180223,533.4614544660407,1182.0981307832378,717.434824753839
1533058271.0670002,1263.3597797993782,698.1754348635566,545.4058382470699,1202.422921131192,801.1366767001683
1533058271.071,1179.3601238628498,676.370019681898,505.59394336463566,1195.6456787523691,872.88199581654
1533058271.075,1122.238706321347,676.370019681898,497.6364562859431,1141.455486875844,762.2733534003368
1533058271.079,1212.9613624913472,621.8117984999202,473.7476887238844,1151.617882049821,920.7081271363706
1533058271.082,1293.5960776764248,654.5422628863238,533.4614544660407,1209.1932267215004,1094.0931585123208
1533058271.086,1202.880302775855,741.8086068407894,545.4058382470699,1236.2952594482776,911.7391969797459
1533058271.09,1091.9955271748702,741.8086068407894,509.57268690398195,1195.6456787523691,866.9006683332483
1533058271.0939999,1068.475348261865,654.5422628863238,465.78204848220133,1148.2257924661521,1141.9192898321514
1533058271.0979998,1139.0358850008806,643.6395552954946,481.7133289655674,1161.7733404352834,1195.7267486352737
1533058271.1020002,1199.5153620244039,698.1754348635566,589.1964766688506,1202.422921131192,774.2298862302944
1533058271.106,1132.3197660368394,676.370019681898,565.3077091067919,1215.9704691003233,612.8075098209275
1533058271.11,1055.0362290643523,752.7336560455343,521.5170706850113,1178.7129779880836,890.8137339931636
1533058271.1139998,1061.7592292978238,741.8086068407894,565.3077091067919,1182.0981307832378,1073.1676955257385
1533058271.1179998,1098.718527408342,556.3732113410288,549.3845817864162,1175.3208884044147,660.6397632773838
1533058271.121,1216.3194219733678,578.1786265226874,557.3502220280993,1192.260525957215,511.1739196979746
1533058271.125,1212.9613624913472,567.2759189318581,613.0852442309092,1161.7733404352834,651.6708331207592
1533058271.129,1075.1983484953366,523.6427469546253,565.3077091067919,1127.9079389067126,708.4658945972144
1533058271.133,1024.7999311873057,567.2759189318581,493.64955958360633,1121.1306965278895,738.3602877404214
1533058271.137,1068.475348261865,567.2759189318581,509.57268690398195,1110.9683013539125,535.08698535789
1533058271.141,1142.4008257523317,578.1786265226874,625.0296280119386,1121.1306965278895,723.4161522371307
1533058271.145,1102.0765868903625,621.8117984999202,621.0427313096018,1117.7455437327355,597.8633743176368
1533058271.149,1091.9955271748702,654.5422628863238,517.538327145665,1121.1306965278895,726.4037549104637
1533058271.1529999,1055.0362290643523,730.9058992499602,437.9145373807964,1080.4880526204956,956.5838477628693
1533058271.157,1014.7188714718134,741.8086068407894,433.9357938414501,1060.1632622725415,696.5093617672568
1533058271.161,1125.5967658033678,643.6395552954946,489.67081604426005,1110.9683013539125,514.1615223713076
1533058271.164,1149.116944716373,610.9090909090909,585.2177331295043,1144.8406396709981,1094.0931585123208
1533058271.168,1065.1172887798443,545.4481621362838,601.1408604498799,1165.1654300189523,1192.7391459619407
1533058271.1720002,994.5567520408289,512.7176977498804,509.57268690398195,1151.617882049821,675.5838987806744
1533058271.176,1031.516050151347,578.1786265226874,497.6364562859431,1131.293091701867,926.6894546196622
1533058271.18,1135.67782551886,600.0063833182616,581.238989590158,1121.1306965278895,789.1801438702107
1533058271.184,1142.4008257523317,709.1004840683016,625.0296280119386,1144.8406396709981,654.6584357940922
1533058271.188,1071.8402890133161,829.0972924091707,613.0852442309092,1158.3881876401292,789.1801438702107
1533058271.1920002,1034.880990902798,763.6363636363636,613.0852442309092,1121.1306965278895,576.9379113310546
1533058271.196,1065.1172887798443,687.2727272727273,545.4058382470699,1097.4207533847812,511.1739196979746
1533058271.2,1182.7181833448703,741.8086068407894,521.5170706850113,1100.8059061799354,798.1490740268354
1533058271.204,1206.2383622578757,763.6363636363636,569.2946058091286,1127.9079389067126,902.7763889597469
1533058271.207,1091.9955271748702,654.5422628863238,609.0983475285725,1127.9079389067126,1028.3230447426151
1533058271.211,1061.7592292978238,643.6395552954946,573.2733493484749,1060.1632622725415,762.2733534003368
1533058271.215,1014.7188714718134,632.7368477046651,505.59394336463566,1029.67607675061,690.5341564205908
1533058271.2189999,1041.5971098668392,665.444970477153,521.5170706850113,1056.7781094773875,1094.0931585123208
1533058271.2229998,1102.0765868903625,774.539071227193,581.238989590158,1056.7781094773875,762.2733534003368
1533058271.2270002,1031.516050151347,872.7304643864036,593.1752202081968,1046.6157143034104,684.5528289372991
1533058271.231,930.7192155352849,938.1690515452949,569.2946058091286,1012.7433759863246,711.4596194071731
1533058271.235,883.6788577092746,840.0,569.2946058091286,985.6482800480622,774.2298862302944
1533058271.2389998,971.0365731278237,807.2695356135964,537.440198005387,1012.7433759863246,968.5403805928269
1533058271.2429998,1071.8402890133161,981.8245651364434,593.1752202081968,1073.7108102416728,660.6397632773838
1533058271.246,1011.3608119897928,1090.8963242725677,652.8971391133435,1073.7108102416728,872.88199581654
1533058271.25,981.117632843316,1058.165859886164,597.1621169105335,1036.453319129433,1201.7080761185655
1533058271.254,977.7595733612953,981.8245651364434,525.503967387348,1039.838471924587,872.88199581654
1533058271.258,984.4756923253366,938.1690515452949,557.3502220280993,1002.5809808123474,968.5403805928269
1533058271.262,1071.8402890133161,949.0941007500398,609.0983475285725,978.8710376692391,920.7081271363706
1533058271.266,1041.5971098668392,992.7272727272727,609.0983475285725,1005.9661336075017,711.4596194071731
1533058271.27,954.2393944482901,992.7272727272727,541.4270947077237,972.1007320789307,893.8074588031222
1533058271.274,954.2393944482901,916.3636363636364,418.0126665210745,965.3234897001078,911.7391969797459
1533058271.2779999,1001.2797522743006,840.0,402.0895392006988,1005.9661336075017,606.8323044742615
1533058271.282,1055.0362290643523,850.9027075908293,445.88017762247944,931.4511513830222,813.093209530126
1533058271.286,1021.441871705285,916.3636363636364,541.4270947077237,873.8688699228284,935.6583847762869
1533058271.289,954.2393944482901,883.6331719772328,545.4058382470699,948.3907889358223,579.9255140043875
1533058271.293,940.8002752507772,883.6331719772328,473.7476887238844,968.7086424952622,705.4782919238814
1533058271.2970002,994.5567520408289,981.8245651364434,445.88017762247944,938.2283937618452,840.0
1533058271.301,1095.3604679263212,970.8995159316985,501.6151998252894,975.4858848740852,845.975205346666
1533058271.305,1112.1576466058548,959.9968083408692,561.3289655674456,1033.0681663342789,863.9130656599153
1533058271.309,1001.2797522743006,949.0941007500398,545.4058382470699,1026.2909239554558,932.6646599663283
1533058271.313,987.8406330767876,850.9027075908293,489.67081604426005,989.0334328432162,992.4534462527422
1533058271.3170002,1071.8402890133161,872.7304643864036,398.11079566135254,1019.5206183651476,911.7391969797459
1533058271.321,1159.1980044318652,992.7272727272727,406.0682827400451,1016.1285287814787,1112.0248966889444
1533058271.325,1085.279408210829,959.9968083408692,497.6364562859431,1002.5809808123474,741.3478904137544
1533058271.329,950.8813349662695,905.460928772807,489.67081604426005,1022.9057711603017,597.8633743176368
1533058271.332,944.1583347327978,981.8245651364434,473.7476887238844,1022.9057711603017,1091.0994337023621
1533058271.336,930.7192155352849,959.9968083408692,465.78204848220133,1046.6157143034104,929.6770572929953
1533058271.34,977.7595733612953,850.9027075908293,481.7133289655674,1080.4880526204956,1061.2050405591551
1533058271.3439999,1065.1172887798443,774.539071227193,557.3502220280993,1080.4880526204956,1079.1429008724044
1533058271.3479998,981.117632843316,840.0,589.1964766688506,1077.095963036827,828.0434671700424
1533058271.3520002,876.9558574758029,970.8995159316985,549.3845817864162,1110.9683013539125,774.2298862302944
1533058271.356,890.4018579427462,1036.3604447045057,509.57268690398195,1100.8059061799354,729.3913575837968
1533058271.36,1028.1579906693264,949.0941007500398,573.2733493484749,1100.8059061799354,1022.3478393959492
1533058271.3639998,1118.8806468393263,938.1690515452949,672.7990099730655,1151.617882049821,1118.0062241722362
1533058271.3679998,1058.401169815803,1047.2631522953347,672.7990099730655,1161.7733404352834,1240.5652772817714
1533058271.371,994.5567520408289,981.8245651364434,617.0639877702555,1178.7129779880836,875.8695984898729
1533058271.375,994.5567520408289,927.2663439544657,593.1752202081968,1127.9079389067126,636.7266976174685
1533058271.379,1081.9213487288084,992.7272727272727,521.5170706850113,1083.8732054156499,863.9130656599153
1533058271.383,1105.4415276418135,1003.6299803181021,561.3289655674456,1124.515849323044,606.8323044742615
1533058271.387,1004.6378117563212,949.0941007500398,593.1752202081968,1107.5831485587582,454.37273608489363
1533058271.391,1001.2797522743006,1014.5326879089313,573.2733493484749,1083.8732054156499,1076.1552981990715
1533058271.395,1004.6378117563212,1025.4577371136763,636.9658586299774,1060.1632622725415,1375.08698535789
1533058271.399,1068.475348261865,949.0941007500398,581.238989590158,1036.453319129433,1249.534207438396
1533058271.4029999,1189.4411835783421,1036.3604447045057,573.2733493484749,1083.8732054156499,1171.8136829753585
1533058271.407,1105.4415276418135,1145.4545454545453,636.9658586299774,1117.7455437327355,1010.3913065659915
1533058271.411,1038.2390503848187,1123.6267886589712,593.1752202081968,1080.4880526204956,642.7019029641344
1533058271.414,1014.7188714718134,1123.6267886589712,529.4827109266944,1033.0681663342789,579.9255140043875
1533058271.418,1011.3608119897928,1090.8963242725677,537.440198005387,1016.1285287814787,887.8261313198307
1533058271.4220002,1118.8806468393263,1058.165859886164,577.2520928878212,1039.838471924587,508.18019488801593
1533058271.426,1038.2390503848187,970.8995159316985,609.0983475285725,1050.0008670985644,535.08698535789
1533058271.43,927.3611560532643,905.460928772807,625.0296280119386,1043.230561508256,965.5466557828682
1533058271.434,903.8409771402592,861.8054151816586,597.1621169105335,1053.3860198937184,1195.7267486352737
1533058271.438,927.3611560532643,763.6363636363636,593.1752202081968,1002.5809808123474,795.1553492168767
1533058271.4420002,981.117632843316,621.8117984999202,648.9102424110067,951.7759417309765,406.546604765063
1533058271.446,940.8002752507772,534.5454545454545,716.589648394846,965.3234897001078,582.9131166777205
1533058271.45,853.4356785627978,687.2727272727273,644.9314988716604,995.8106752220394,798.1490740268354
1533058271.4529998,796.3211422907254,807.2695356135964,577.2520928878212,1022.9057711603017,484.2671292281006
1533058271.457,856.8006193142487,840.0,553.371478488753,985.6482800480622,224.19876536911383
1533058271.461,960.9555134123314,927.2663439544657,585.2177331295043,989.0334328432162,337.7888883220243
1533058271.465,920.6381558197927,894.5358795680621,652.8971391133435,1046.6157143034104,445.40992806489464
1533058271.4689999,900.4760363888081,807.2695356135964,621.0427313096018,1063.5484150676957,606.8323044742615
1533058271.4729998,900.4760363888081,698.1754348635566,537.440198005387,1019.5206183651476,860.9254629865823
1533058271.4770002,893.7599174247669,665.444970477153,485.6920725049137,1039.838471924587,819.0745370134177
1533058271.481,1028.1579906693264,763.6363636363636,537.440198005387,1121.1306965278895,684.5528289372991
1533058271.485,1098.718527408342,785.4417788180223,573.2733493484749,1094.035600589627,786.1925411968778
1533058271.4889998,1065.1172887798443,829.0972924091707,533.4614544660407,1077.095963036827,1070.17397071578
1533058271.4929998,1014.7188714718134,894.5358795680621,501.6151998252894,1090.6435110059583,1088.1118310290292
1533058271.496,1044.95516934886,861.8054151816586,469.7689451845381,1033.0681663342789,935.6583847762869
1533058271.5,1175.9951831113988,905.460928772807,425.97830676275754,1029.67607675061,831.0310698433753
1533058271.504,1199.5153620244039,894.5358795680621,481.7133289655674,1073.7108102416728,822.0621396867507
1533058271.508,1118.8806468393263,807.2695356135964,529.4827109266944,1046.6157143034104,1285.4099280648948
1533058271.512,1068.475348261865,763.6363636363636,477.72643226323066,1022.9057711603017,1132.9503596755267
1533058271.516,1081.9213487288084,829.0972924091707,429.9570503021038,1019.5206183651476,708.4658945972144
1533058271.52,1172.637123629378,894.5358795680621,453.8458178641625,995.8106752220394,639.7143002908015
1533058271.524,1189.4411835783421,818.1722432044257,465.78204848220133,1050.0008670985644,609.8199071475946
1533058271.5279999,1118.8806468393263,796.3668280227672,406.0682827400451,1087.258358210804,980.4969134227846
1533058271.532,1055.0362290643523,872.7304643864036,418.0126665210745,1046.6157143034104,1378.074588031223
1533058271.536,1051.6781695823315,916.3636363636364,414.03392298172815,992.4185856383704,899.7826641497883
1533058271.539,1152.4750041983937,883.6331719772328,418.0126665210745,999.1958280171933,1001.4223764093668
1533058271.543,1192.7992430603626,872.7304643864036,505.59394336463566,1012.7433759863246,1387.0435181878477
1533058271.5470002,1065.1172887798443,872.7304643864036,517.538327145665,995.8106752220394,1192.7391459619407
1533058271.551,981.117632843316,818.1722432044257,497.6364562859431,982.2561904643932,1144.9068925054844
1533058271.555,954.2393944482901,807.2695356135964,541.4270947077237,972.1007320789307,932.6646599663283
1533058271.559,1004.6378117563212,850.9027075908293,517.538327145665,951.7759417309765,851.9565328299576
1533058271.563,1081.9213487288084,840.0,517.538327145665,989.0334328432162,1141.9192898321514
1533058271.5670002,994.5567520408289,785.4417788180223,517.538327145665,1043.230561508256,989.4658435794092
1533058271.571,964.3204541637824,741.8086068407894,489.67081604426005,1046.6157143034104,944.6211927962859
1533058271.575,967.678513645803,709.1004840683016,473.7476887238844,1009.3582231911705,723.4161522371307
1533058271.5779998,977.7595733612953,807.2695356135964,457.82456140350877,989.0334328432162,334.8012856486914
1533058271.582,1031.516050151347,818.1722432044257,517.538327145665,995.8106752220394,457.3664608948523
1533058271.586,997.9216927922798,807.2695356135964,533.4614544660407,1026.2909239554558,884.8385286464976
1533058271.59,964.3204541637824,840.0,445.88017762247944,1005.9661336075017,842.987602673333
1533058271.5939999,930.7192155352849,774.539071227193,453.8458178641625,955.1610945261307,705.4782919238814
1533058271.5979998,957.5974539303107,752.7336560455343,418.0126665210745,944.9986993521535,956.5838477628693
1533058271.6020002,1058.401169815803,752.7336560455343,429.9570503021038,958.5462473212848,1076.1552981990715
1533058271.606,1048.3201101003108,720.0031916591308,485.6920725049137,978.8710376692391,747.3292178970461
1533058271.61,987.8406330767876,709.1004840683016,473.7476887238844,995.8106752220394,759.2857507270037
1533058271.6139998,934.0772750173056,676.370019681898,445.88017762247944,978.8710376692391,1249.534207438396
1533058271.6179998,981.117632843316,709.1004840683016,410.04702627939145,985.6482800480622,1282.416203254936
1533058271.621,1081.9213487288084,730.9058992499602,449.8589211618257,961.9383369049536,1168.8260803020255
1533058271.625,1071.8402890133161,720.0031916591308,493.64955958360633,931.4511513830222,1025.3354420692822
1533058271.629,994.5567520408289,774.539071227193,473.7476887238844,961.9383369049536,962.5590531095353
1533058271.633,917.2800963377721,763.6363636363636,481.7133289655674,897.5788130659367,890.8137339931636
1533058271.637,917.2800963377721,687.2727272727273,493.64955958360633,873.8688699228284,1174.8012856486914
1533058271.641,1048.3201101003108,643.6395552954946,497.6364562859431,938.2283937618452,1342.20498954135
1533058271.645,1098.718527408342,643.6395552954946,525.503967387348,995.8106752220394,1198.7143513086066
1533058271.649,1007.9958712383418,665.444970477153,537.440198005387,1056.7781094773875,1103.0559665323199
1533058271.6529999,950.8813349662695,752.7336560455343,549.3845817864162,1060.1632622725415,1004.4099790826998
1533058271.657,964.3204541637824,818.1722432044257,565.3077091067919,1039.838471924587,840.0
1533058271.66,1075.1983484953366,829.0972924091707,553.371478488753,1046.6157143034104,950.6025202795776
1533058271.664,1149.116944716373,796.3668280227672,549.3845817864162,1046.6157143034104,831.0310698433753
1533058271.668,1088.6374676928497,818.1722432044257,533.4614544660407,1056.7781094773875,469.32299372481
1533058271.6720002,1011.3608119897928,785.4417788180223,493.64955958360633,1033.0681663342789,553.0248456711392
1533058271.676,974.4015138792747,632.7368477046651,493.64955958360633,995.8106752220394,505.1925922146829
1533058271.68,1075.1983484953366,643.6395552954946,461.80330494285505,999.1958280171933,499.21738686801694
1533058271.684,1199.5153620244039,785.4417788180223,501.6151998252894,1080.4880526204956,582.9131166777205
1533058271.688,1108.7995871238343,850.9027075908293,541.4270947077237,1107.5831485587582,541.0621907045559
1533058271.6920002,947.5163942148184,796.3668280227672,513.5595836063187,961.9383369049536,457.3664608948523
1533058271.696,934.0772750173056,741.8086068407894,493.64955958360633,907.7412082399139,511.1739196979746
1533058271.7,1031.516050151347,698.1754348635566,521.5170706850113,944.9986993521535,875.8695984898729
1533058271.7029998,1085.279408210829,796.3668280227672,581.238989590158,968.7086424952622,1004.4099790826998
1533058271.707,977.7595733612953,829.0972924091707,601.1408604498799,985.6482800480622,768.2546808836283
1533058271.711,944.1583347327978,818.1722432044257,605.1196039892262,961.9383369049536,406.546604765063
1533058271.715,947.5163942148184,861.8054151816586,529.4827109266944,995.8106752220394,415.5155349216877
1533058271.7189999,971.0365731278237,785.4417788180223,465.78204848220133,1019.5206183651476,726.4037549104637
1533058271.7229998,1061.7592292978238,741.8086068407894,521.5170706850113,1012.7433759863246,1013.3789092393246
1533058271.7270002,1038.2390503848187,796.3668280227672,541.4270947077237,1039.838471924587,944.6211927962859
1533058271.731,981.117632843316,763.6363636363636,517.538327145665,1050.0008670985644,615.8012346308861
1533058271.735,930.7192155352849,730.9058992499602,521.5170706850113,1039.838471924587,597.8633743176368
1533058271.7389998,984.4756923253366,818.1722432044257,505.59394336463566,1012.7433759863246,768.2546808836283
1533058271.7429998,1088.6374676928497,840.0,529.4827109266944,1046.6157143034104,977.5093107494515
1533058271.746,1055.0362290643523,752.7336560455343,549.3845817864162,1026.2909239554558,1001.4223764093668
1533058271.75,981.117632843316,829.0972924091707,477.72643226323066,1012.7433759863246,723.4161522371307
1533058271.754,964.3204541637824,850.9027075908293,493.64955958360633,1053.3860198937184,1001.4223764093668
1533058271.758,994.5567520408289,741.8086068407894,453.8458178641625,992.4185856383704,977.5093107494515
1533058271.762,1055.0362290643523,774.539071227193,421.9914100604208,978.8710376692391,866.9006683332483
1533058271.766,1018.0769309538341,785.4417788180223,497.6364562859431,1019.5206183651476,678.5715014540075
1533058271.77,950.8813349662695,752.7336560455343,533.4614544660407,1009.3582231911705,337.7888883220243
1533058271.774,930.7192155352849,807.2695356135964,513.5595836063187,961.9383369049536,825.0497423600837
1533058271.7779999,940.8002752507772,807.2695356135964,477.72643226323066,992.4185856383704,872.88199581654
1533058271.782,1024.7999311873057,785.4417788180223,485.6920725049137,1056.7781094773875,759.2857507270037
1533058271.785,1061.7592292978238,818.1722432044257,517.538327145665,1012.7433759863246,801.1366767001683
1533058271.789,977.7595733612953,763.6363636363636,553.371478488753,1033.0681663342789,929.6770572929953
1533058271.793,920.6381558197927,720.0031916591308,517.538327145665,1087.258358210804,825.0497423600837
1533058271.7970002,927.3611560532643,687.2727272727273,461.80330494285505,1063.5484150676957,857.9317381766236
1533058271.801,1021.441871705285,698.1754348635566,537.440198005387,1063.5484150676957,1037.29197489924
1533058271.805,1081.9213487288084,763.6363636363636,525.503967387348,1073.7108102416728,807.11800418346
1533058271.809,991.1986925588083,752.7336560455343,449.8589211618257,1056.7781094773875,848.962808019999
1533058271.813,944.1583347327978,861.8054151816586,465.78204848220133,1073.7108102416728,702.4906892505485
1533058271.8170002,981.117632843316,883.6331719772328,485.6920725049137,1073.7108102416728,648.6832304474261
1533058271.821,1125.5967658033678,785.4417788180223,533.4614544660407,1063.5484150676957,1177.7888883220244
1533058271.825,1189.4411835783421,872.7304643864036,569.2946058091286,1104.1979957636042,1333.2360593847252
1533058271.8279998,1055.0362290643523,861.8054151816586,497.6364562859431,1100.8059061799354,1201.7080761185655
1533058271.832,984.4756923253366,774.539071227193,453.8458178641625,1053.3860198937184,854.9441355032907
1533058271.836,964.3204541637824,774.539071227193,425.97830676275754,985.6482800480622,427.47206775164534
1533058271.84,1041.5971098668392,720.0031916591308,465.78204848220133,1009.3582231911705,887.8261313198307
1533058271.8439999,1091.9955271748702,730.9058992499602,517.538327145665,1070.3256574465186,1195.7267486352737
1533058271.8479998,981.117632843316,698.1754348635566,473.7476887238844,1063.5484150676957,1043.2733023825315
1533058271.8520002,900.4760363888081,578.1786265226874,437.9145373807964,1029.67607675061,744.3416152237131
1533058271.856,883.6788577092746,589.0813341135167,457.82456140350877,992.4185856383704,618.7888373042192
1533058271.86,971.0365731278237,621.8117984999202,481.7133289655674,1009.3582231911705,816.080812203459
1533058271.8639998,1061.7592292978238,578.1786265226874,593.1752202081968,1029.67607675061,618.7888373042192
1533058271.8679998,1021.441871705285,632.7368477046651,680.7646502147485,1019.5206183651476,872.88199581654
1533058271.871,981.117632843316,720.0031916591308,605.1196039892262,1026.2909239554558,887.8261313198307
1533058271.875,954.2393944482901,785.4417788180223,569.2946058091286,999.1958280171933,633.7329728075098
1533058271.879,987.8406330767876,840.0,573.2733493484749,968.7086424952622,980.4969134227846
1533058271.883,1051.6781695823315,829.0972924091707,513.5595836063187,975.4858848740852,965.5466557828682
1533058271.887,1018.0769309538341,850.9027075908293,465.78204848220133,995.8106752220394,842.987602673333
1533058271.891,971.0365731278237,894.5358795680621,517.538327145665,1022.9057711603017,959.5714504362022
1533058271.895,947.5163942148184,883.6331719772328,497.6364562859431,1012.7433759863246,828.0434671700424
1533058271.899,997.9216927922798,840.0,473.7476887238844,1002.5809808123474,705.4782919238814
1533058271.9029999,1095.3604679263212,894.5358795680621,601.1408604498799,1022.9057711603017,896.7950614764553
1533058271.907,1061.7592292978238,949.0941007500398,629.0083715512849,1039.838471924587,687.5404316106321
1533058271.91,1004.6378117563212,883.6331719772328,561.3289655674456,1026.2909239554558,397.5776746084384
1533058271.914,997.9216927922798,883.6331719772328,545.4058382470699,1022.9057711603017,699.4969644405897
1533058271.918,1034.880990902798,818.1722432044257,433.9357938414501,1022.9057711603017,854.9441355032907
1533058271.9220002,1088.6374676928497,774.539071227193,414.03392298172815,1026.2909239554558,690.5341564205908
1533058271.926,1085.279408210829,861.8054151816586,529.4827109266944,1056.7781094773875,726.4037549104637
1533058271.93,974.4015138792747,840.0,517.538327145665,1100.8059061799354,890.8137339931636
1533058271.934,934.0772750173056,763.6363636363636,489.67081604426005,1070.3256574465186,759.2857507270037
1533058271.938,991.1986925588083,741.8086068407894,457.82456140350877,1043.230561508256,702.4906892505485
1533058271.9420002,1088.6374676928497,785.4417788180223,449.8589211618257,1063.5484150676957,783.198816386919
1533058271.946,1139.0358850008806,927.2663439544657,489.67081604426005,1080.4880526204956,711.4596194071731
1533058271.95,1068.475348261865,981.8245651364434,517.538327145665,1107.5831485587582,980.4969134227846
1533058271.9529998,974.4015138792747,905.460928772807,529.4827109266944,1097.4207533847812,992.4534462527422
1533058271.957,960.9555134123314,938.1690515452949,529.4827109266944,1063.5484150676957,729.3913575837968
1533058271.961,1044.95516934886,1014.5326879089313,557.3502220280993,1063.5484150676957,1138.9316871588185
1533058271.965,1044.95516934886,1014.5326879089313,569.2946058091286,1080.4880526204956,1210.67700627519
1533058271.9689999,984.4756923253366,981.8245651364434,545.4058382470699,1026.2909239554558,881.8509259731646
1533058271.9729998,944.1583347327978,992.7272727272727,529.4827109266944,1019.5206183651476,935.6583847762869
1533058271.9770002,923.9962153018133,970.8995159316985,485.6920725049137,1043.230561508256,971.5279832661599
1533058271.981,1028.1579906693264,883.6331719772328,493.64955958360633,1002.5809808123474,1103.0559665323199
1533058271.985,1095.3604679263212,829.0972924091707,644.9314988716604,1002.5809808123474,1040.2795775725729
1533058271.9889998,1041.5971098668392,752.7336560455343,648.9102424110067,1066.9405046513648,917.7205244630376
1533058271.992,1001.2797522743006,676.370019681898,521.5170706850113,1063.5484150676957,908.7515943064129
1533058271.996,997.9216927922798,709.1004840683016,553.371478488753,1029.67607675061,1061.2050405591551
1533058272.0,1078.5564079773574,665.444970477153,553.371478488753,1029.67607675061,1010.3913065659915
1533058272.004,1145.7588852343522,610.9090909090909,597.1621169105335,1066.9405046513648,878.857201163206
1533058272.008,1085.279408210829,643.6395552954946,636.9658586299774,1087.258358210804,840.0
1533058272.012,1001.2797522743006,621.8117984999202,541.4270947077237,1063.5484150676957,917.7205244630376
1533058272.016,967.678513645803,545.4481621362838,489.67081604426005,992.4185856383704,1088.1118310290292
1533058272.02,1041.5971098668392,589.0813341135167,505.59394336463566,965.3234897001078,992.4534462527422
1533058272.024,1091.9955271748702,698.1754348635566,609.0983475285725,1060.1632622725415,896.7950614764553
1533058272.0279999,1007.9958712383418,752.7336560455343,625.0296280119386,1056.7781094773875,825.0497423600837
1533058272.032,971.0365731278237,807.2695356135964,581.238989590158,1036.453319129433,845.975205346666
1533058272.035,981.117632843316,938.1690515452949,529.4827109266944,995.8106752220394,944.6211927962859
1533058272.039,1007.9958712383418,927.2663439544657,457.82456140350877,968.7086424952622,633.7329728075098
1533058272.043,1075.1983484953366,741.8086068407894,493.64955958360633,1026.2909239554558,738.3602877404214
1533058272.0470002,1038.2390503848187,720.0031916591308,509.57268690398195,1002.5809808123474,1097.0807611856537
1533058272.051,957.5974539303107,730.9058992499602,481.7133289655674,975.4858848740852,998.4347737360339
1533058272.055,900.4760363888081,676.370019681898,497.6364562859431,978.8710376692391,1285.4099280648948
1533058272.059,947.5163942148184,632.7368477046651,418.0126665210745,999.1958280171933,1530.5341564205908
1533058272.063,1048.3201101003108,610.9090909090909,386.1664118803232,972.1007320789307,1115.0124993622774
1533058272.0670002,1021.441871705285,600.0063833182616,461.80330494285505,989.0334328432162,1025.3354420692822
1533058272.071,981.117632843316,556.3732113410288,449.8589211618257,1012.7433759863246,1171.8136829753585
1533058272.075,940.8002752507772,480.0095749773924,433.9357938414501,982.2561904643932,1040.2795775725729
1533058272.0779998,984.4756923253366,447.27911059098886,362.27764431826455,948.3907889358223,887.8261313198307
1533058272.082,1105.4415276418135,512.7176977498804,398.11079566135254,961.9383369049536,660.6397632773838
1533058272.086,1088.6374676928497,534.5454545454545,573.2733493484749,999.1958280171933,834.0186725167083
1533058272.09,1021.441871705285,556.3732113410288,529.4827109266944,985.6482800480622,929.6770572929953
1533058272.0939999,1001.2797522743006,610.9090909090909,461.80330494285505,948.3907889358223,762.2733534003368
1533058272.0979998,981.117632843316,741.8086068407894,386.1664118803232,914.5184506187368,834.0186725167083
1533058272.1020002,1051.6781695823315,818.1722432044257,366.25638785761083,897.5788130659367,944.6211927962859
1533058272.106,1061.7592292978238,720.0031916591308,425.97830676275754,948.3907889358223,863.9130656599153
1533058272.11,944.1583347327978,621.8117984999202,410.04702627939145,968.7086424952622,657.6460384674251
1533058272.1139998,937.4353344993262,643.6395552954946,493.64955958360633,955.1610945261307,977.5093107494515
1533058272.117,967.678513645803,589.0813341135167,453.8458178641625,917.9036034138909,768.2546808836283
1533058272.121,1001.2797522743006,578.1786265226874,429.9570503021038,904.3560554447597,367.68328146523135
1533058272.125,1048.3201101003108,698.1754348635566,585.2177331295043,951.7759417309765,529.1056578745983
1533058272.129,981.117632843316,752.7336560455343,625.0296280119386,917.9036034138909,678.5715014540075
1533058272.133,920.6381558197927,785.4417788180223,581.238989590158,880.6461123016513,941.6335901229529
1533058272.137,907.1990366222798,720.0031916591308,477.72643226323066,867.09856433252,1040.2795775725729
1533058272.141,950.8813349662695,610.9090909090909,437.9145373807964,873.8688699228284,711.4596194071731
1533058272.145,1078.5564079773574,665.444970477153,525.503967387348,938.2283937618452,681.5652262639661
1533058272.149,1081.9213487288084,752.7336560455343,521.5170706850113,1012.7433759863246,872.88199581654
1533058272.1529999,1024.7999311873057,774.539071227193,501.6151998252894,1036.453319129433,956.5838477628693
1533058272.157,1004.6378117563212,796.3668280227672,441.90143408313315,995.8106752220394,950.6025202795776
1533058272.16,1115.5157060878755,818.1722432044257,429.9570503021038,1019.5206183651476,866.9006683332483
1533058272.164,1172.637123629378,741.8086068407894,517.538327145665,1056.7781094773875,535.08698535789
1533058272.168,1068.475348261865,785.4417788180223,533.4614544660407,1050.0008670985644,654.6584357940922
1533058272.1720002,991.1986925588083,949.0941007500398,465.78204848220133,1039.838471924587,672.5962961073415
1533058272.176,940.8002752507772,1014.5326879089313,493.64955958360633,1016.1285287814787,690.5341564205908
1533058272.18,1007.9958712383418,970.8995159316985,609.0983475285725,1033.0681663342789,573.9503086577215
1533058272.184,1078.5564079773574,840.0,664.8333697313824,1090.6435110059583,385.6211417784807
1533058272.188,1038.2390503848187,818.1722432044257,716.589648394846,1161.7733404352834,1025.3354420692822
1533058272.1920002,997.9216927922798,872.7304643864036,692.7008808327873,1151.617882049821,923.6957298097036
1533058272.196,960.9555134123314,752.7336560455343,613.0852442309092,1053.3860198937184,621.7764399775522
1533058272.2,1014.7188714718134,763.6363636363636,585.2177331295043,1046.6157143034104,1049.2485077291974
1533058272.2029998,1085.279408210829,807.2695356135964,597.1621169105335,1090.6435110059583,1255.5155349216877
1533058272.207,1078.5564079773574,774.539071227193,517.538327145665,1124.515849323044,828.0434671700424
1533058272.211,1014.7188714718134,883.6331719772328,493.64955958360633,1110.9683013539125,842.987602673333
1533058272.215,937.4353344993262,872.7304643864036,549.3845817864162,1056.7781094773875,786.1925411968778
1533058272.2189999,1004.6378117563212,861.8054151816586,457.82456140350877,1043.230561508256,783.198816386919
1533058272.2229998,1102.0765868903625,927.2663439544657,457.82456140350877,1100.8059061799354,822.0621396867507
1533058272.2270002,1058.401169815803,850.9027075908293,509.57268690398195,1141.455486875844,738.3602877404214
1533058272.231,1051.6781695823315,850.9027075908293,469.7689451845381,1144.8406396709981,854.9441355032907
1533058272.235,1024.7999311873057,872.7304643864036,469.7689451845381,1131.293091701867,463.3416662415183
1533058272.2389998,1001.2797522743006,741.8086068407894,469.7689451845381,1097.4207533847812,400.56527728177133
1533058272.242,1098.718527408342,698.1754348635566,561.3289655674456,1080.4880526204956,1282.416203254936
1533058272.246,1061.7592292978238,850.9027075908293,605.1196039892262,1066.9405046513648,1330.2484567113922
1533058272.25,1001.2797522743006,927.2663439544657,497.6364562859431,1060.1632622725415,496.22366205805827
1533058272.254,1024.7999311873057,927.2663439544657,469.7689451845381,1063.5484150676957,612.8075098209275
1533058272.258,1024.7999311873057,883.6331719772328,441.90143408313315,1066.9405046513648,768.2546808836283
1533058272.262,1132.3197660368394,785.4417788180223,465.78204848220133,1087.258358210804,663.6273659507168
1533058272.266,1182.7181833448703,850.9027075908293,517.538327145665,1144.8406396709981,573.9503086577215
1533058272.27,1112.1576466058548,949.0941007500398,501.6151998252894,1165.1654300189523,687.5404316106321
1533058272.274,1098.718527408342,927.2663439544657,489.67081604426005,1144.8406396709981,857.9317381766236
1533058272.2779999,1115.5157060878755,850.9027075908293,433.9357938414501,1124.515849323044,630.7453701341768
1533058272.282,1192.7992430603626,796.3668280227672,489.67081604426005,1141.455486875844,669.6086934340085
1533058272.285,1256.6367795659066,840.0,625.0296280119386,1199.0308315475231,863.9130656599153
1533058272.289,1202.880302775855,861.8054151816586,613.0852442309092,1229.5180170694546,1043.2733023825315
1533058272.293,1108.7995871238343,872.7304643864036,561.3289655674456,1215.9704691003233,1168.8260803020255
1533058272.2970002,1061.7592292978238,883.6331719772328,485.6920725049137,1151.617882049821,831.0310698433753
1533058272.301,1115.5157060878755,807.2695356135964,485.6920725049137,1134.6782444970208,840.0
1533058272.305,1169.2790641473575,796.3668280227672,565.3077091067919,1161.7733404352834,436.44099790827
1533058272.309,1105.4415276418135,763.6363636363636,573.2733493484749,1155.0030348449752,331.8136829753584
1533058272.313,1011.3608119897928,665.444970477153,569.2946058091286,1134.6782444970208,902.7763889597469
1533058272.3170002,974.4015138792747,632.7368477046651,497.6364562859431,1104.1979957636042,1073.1676955257385
1533058272.321,1055.0362290643523,665.444970477153,473.7476887238844,1070.3256574465186,1001.4223764093668
1533058272.324,1128.9548252853883,687.2727272727273,613.0852442309092,1121.1306965278895,783.198816386919
1533058272.3279998,1081.9213487288084,730.9058992499602,716.589648394846,1138.063397292175,801.1366767001683
1533058272.332,1044.95516934886,709.1004840683016,688.722137293441,1080.4880526204956,887.8261313198307
1533058272.336,1011.3608119897928,600.0063833182616,632.9871150906312,1070.3256574465186,1118.0062241722362
1533058272.34,1044.95516934886,556.3732113410288,529.4827109266944,1050.0008670985644,941.6335901229529
1533058272.3439999,1139.0358850008806,534.5454545454545,541.4270947077237,1046.6157143034104,717.434824753839
1533058272.3479998,1139.0358850008806,545.4481621362838,581.238989590158,1087.258358210804,642.7019029641344
1533058272.3520002,1065.1172887798443,600.0063833182616,541.4270947077237,1083.8732054156499,729.3913575837968
1533058272.356,1024.7999311873057,610.9090909090909,545.4058382470699,1043.230561508256,1085.1242283556962
1533058272.36,1078.5564079773574,720.0031916591308,561.3289655674456,1043.230561508256,1174.8012856486914
1533058272.3639998,1169.2790641473575,861.8054151816586,577.2520928878212,1121.1306965278895,798.1490740268354
1533058272.367,1118.8806468393263,883.6331719772328,557.3502220280993,1138.063397292175,529.1056578745983
1533058272.371,1051.6781695823315,872.7304643864036,497.6364562859431,1117.7455437327355,687.5404316106321
1533058272.375,1044.95516934886,840.0,481.7133289655674,1114.353454149067,995.4410489260752
1533058272.379,1075.1983484953366,818.1722432044257,473.7476887238844,1073.7108102416728,863.9130656599153
1533058272.383,1189.4411835783421,861.8054151816586,489.67081604426005,1077.095963036827,609.8199071475946
1533058272.387,1175.9951831113988,850.9027075908293,501.6151998252894,1124.515849323044,822.0621396867507
1533058272.391,1068.475348261865,850.9027075908293,497.6364562859431,1104.1979957636042,950.6025202795776
1533058272.395,1041.5971098668392,861.8054151816586,445.88017762247944,1066.9405046513648,1270.4596704249784
1533058272.399,1081.9213487288084,850.9027075908293,374.2220280992939,1056.7781094773875,1028.3230447426151
1533058272.4029999,1152.4750041983937,883.6331719772328,465.78204848220133,1039.838471924587,484.2671292281006
1533058272.407,1091.9955271748702,840.0,593.1752202081968,1073.7108102416728,857.9317381766236
1533058272.41,1001.2797522743006,861.8054151816586,577.2520928878212,1053.3860198937184,869.8882710065812
1533058272.414,957.5974539303107,861.8054151816586,525.503967387348,961.9383369049536,878.857201163206
1533058272.418,950.8813349662695,796.3668280227672,418.0126665210745,941.6135465569994,848.962808019999
1533058272.4220002,1044.95516934886,829.0972924091707,429.9570503021038,972.1007320789307,696.5093617672568
1533058272.426,1088.6374676928497,850.9027075908293,533.4614544660407,978.8710376692391,1022.3478393959492
1533058272.43,991.1986925588083,807.2695356135964,469.7689451845381,968.7086424952622,842.987602673333
1533058272.434,897.1179769067875,730.9058992499602,421.9914100604208,928.0659985878681,1007.3975817560329
1533058272.438,890.4018579427462,763.6363636363636,362.27764431826455,897.5788130659367,1123.9814295189021
1533058272.4420002,1024.7999311873057,829.0972924091707,398.11079566135254,928.0659985878681,881.8509259731646
1533058272.446,1102.0765868903625,774.539071227193,529.4827109266944,944.9986993521535,1034.304372225907
1533058272.449,997.9216927922798,665.444970477153,489.67081604426005,958.5462473212848,828.0434671700424
1533058272.4529998,920.6381558197927,643.6395552954946,465.78204848220133,951.7759417309765,457.3664608948523
1533058272.457,900.4760363888081,676.370019681898,429.9570503021038,934.843240966691,714.4472220805061
1533058272.461,987.8406330767876,687.2727272727273,370.2432845599476,938.2283937618452,765.2670782102954
1533058272.465,1078.5564079773574,665.444970477153,425.97830676275754,944.9986993521535,672.5962961073415
1533058272.4689999,1014.7188714718134,665.444970477153,398.11079566135254,931.4511513830222,834.0186725167083
1533058272.4729998,954.2393944482901,752.7336560455343,338.3888767562059,934.843240966691,735.3726850670885
1533058272.4770002,950.8813349662695,829.0972924091707,362.27764431826455,921.2887562090451,756.2981480536707
1533058272.481,1001.2797522743006,861.8054151816586,354.3120040765815,944.9986993521535,585.9068414876792
1533058272.485,1078.5564079773574,861.8054151816586,477.72643226323066,995.8106752220394,669.6086934340085
1533058272.4889998,1021.441871705285,774.539071227193,605.1196039892262,982.2561904643932,953.5901229529105
1533058272.492,957.5974539303107,763.6363636363636,557.3502220280993,982.2561904643932,959.5714504362022
1533058272.496,897.1179769067875,796.3668280227672,513.5595836063187,978.8710376692391,971.5279832661599
1533058272.5,950.8813349662695,818.1722432044257,565.3077091067919,985.6482800480622,956.5838477628693
1533058272.504,1122.238706321347,861.8054151816586,601.1408604498799,1050.0008670985644,639.7143002908015
1533058272.508,1044.95516934886,883.6331719772328,585.2177331295043,1056.7781094773875,553.0248456711392
1533058272.512,957.5974539303107,818.1722432044257,605.1196039892262,1046.6157143034104,750.316820570379
1533058272.516,950.8813349662695,676.370019681898,605.1196039892262,1009.3582231911705,831.0310698433753
1533058272.52,977.7595733612953,665.444970477153,553.371478488753,985.6482800480622,651.6708331207592
1533058272.524,1115.5157060878755,709.1004840683016,549.3845817864162,1019.5206183651476,708.4658945972144
1533058272.5279999,1135.67782551886,752.7336560455343,573.2733493484749,1022.9057711603017,1064.1987653691137
1533058272.532,1028.1579906693264,741.8086068407894,533.4614544660407,992.4185856383704,1240.5652772817714
1533058272.535,950.8813349662695,643.6395552954946,469.7689451845381,972.1007320789307,977.5093107494515
1533058272.539,987.8406330767876,501.81499015905104,441.90143408313315,982.2561904643932,869.8882710065812
1533058272.543,1091.9955271748702,545.4481621362838,461.80330494285505,985.6482800480622,1189.7515432886078
1533058272.5470002,1061.7592292978238,698.1754348635566,521.5170706850113,985.6482800480622,1070.17397071578
1533058272.551,964.3204541637824,774.539071227193,553.371478488753,999.1958280171933,1037.29197489924
1533058272.555,923.9962153018133,774.539071227193,505.59394336463566,989.0334328432162,1034.304372225907
1533058272.559,890.4018579427462,632.7368477046651,414.03392298172815,934.843240966691,612.8075098209275
1533058272.563,987.8406330767876,600.0063833182616,473.7476887238844,900.9709026496056,517.1491250446405
1533058272.5670002,1068.475348261865,589.0813341135167,577.2520928878212,921.2887562090451,714.4472220805061
1533058272.571,994.5567520408289,534.5454545454545,545.4058382470699,938.2283937618452,804.1242793735014
1533058272.574,927.3611560532643,458.1818181818182,537.440198005387,965.3234897001078,819.0745370134177
1533058272.5779998,947.5163942148184,480.0095749773924,513.5595836063187,951.7759417309765,708.4658945972144
1533058272.582,1034.880990902798,600.0063833182616,553.371478488753,968.7086424952622,992.4534462527422
1533058272.586,1061.7592292978238,567.2759189318581,636.9658586299774,1016.1285287814787,953.5901229529105
1533058272.59,991.1986925588083,556.3732113410288,585.2177331295043,995.8106752220394,798.1490740268354
1533058272.5939999,934.0772750173056,632.7368477046651,497.6364562859431,982.2561904643932,567.9689811744299
1533058272.5979998,964.3204541637824,610.9090909090909,501.6151998252894,982.2561904643932,678.5715014540075
1533058272.6020002,1112.1576466058548,567.2759189318581,533.4614544660407,978.8710376692391,935.6583847762869
1533058272.606,1169.2790641473575,632.7368477046651,489.67081604426005,1016.1285287814787,708.4658945972144
1533058272.61,1061.7592292978238,621.8117984999202,481.7133289655674,1029.67607675061,896.7950614764553
1533058272.6139998,994.5567520408289,621.8117984999202,517.538327145665,999.1958280171933,914.7329217897046
1533058272.617,974.4015138792747,589.0813341135167,398.11079566135254,968.7086424952622,1186.7578184786491
1533058272.621,1021.441871705285,425.45135379541466,370.2432845599476,941.6135465569994,1171.8136829753585
1533058272.625,1048.3201101003108,403.6459386137561,533.4614544660407,965.3234897001078,887.8261313198307
1533058272.629,971.0365731278237,469.08452577264745,549.3845817864162,995.8106752220394,887.8261313198307
1533058272.633,917.2800963377721,501.81499015905104,553.371478488753,972.1007320789307,893.8074588031222
1533058272.637,923.9962153018133,490.9122825682217,509.57268690398195,975.4858848740852,1019.3602367226162
1533058272.641,984.4756923253366,447.27911059098886,461.80330494285505,1009.3582231911705,732.3789602571297
1533058272.645,1065.1172887798443,458.1818181818182,509.57268690398195,1043.230561508256,795.1553492168767
1533058272.649,1014.7188714718134,458.1818181818182,533.4614544660407,1022.9057711603017,1171.8136829753585
1533058272.6529999,967.678513645803,534.5454545454545,513.5595836063187,999.1958280171933,1410.9565838477629
1533058272.6560001,930.7192155352849,610.9090909090909,441.90143408313315,989.0334328432162,1094.0931585123208
1533058272.66,974.4015138792747,632.7368477046651,406.0682827400451,1002.5809808123474,702.4906892505485
1533058272.664,1091.9955271748702,632.7368477046651,513.5595836063187,1043.230561508256,621.7764399775522
1533058272.668,1044.95516934886,676.370019681898,625.0296280119386,1046.6157143034104,618.7888373042192
1533058272.6720002,984.4756923253366,643.6395552954946,621.0427313096018,1009.3582231911705,705.4782919238814
1533058272.676,920.6381558197927,589.0813341135167,573.2733493484749,992.4185856383704,756.2981480536707
1533058272.68,913.915155586321,698.1754348635566,537.440198005387,948.3907889358223,765.2670782102954
1533058272.684,1034.880990902798,807.2695356135964,553.371478488753,931.4511513830222,1085.1242283556962
1533058272.688,964.3204541637824,785.4417788180223,509.57268690398195,961.9383369049536,1115.0124993622774
1533058272.6920002,870.2397385117616,785.4417788180223,469.7689451845381,989.0334328432162,783.198816386919
1533058272.696,876.9558574758029,850.9027075908293,453.8458178641625,982.2561904643932,959.5714504362022
1533058272.699,913.915155586321,850.9027075908293,418.0126665210745,975.4858848740852,953.5901229529105
1533058272.7029998,1024.7999311873057,730.9058992499602,473.7476887238844,989.0334328432162,630.7453701341768
1533058272.707,1055.0362290643523,632.7368477046651,497.6364562859431,999.1958280171933,822.0621396867507
1533058272.711,947.5163942148184,643.6395552954946,433.9357938414501,1016.1285287814787,1043.2733023825315
1533058272.715,887.0369171912952,589.0813341135167,398.11079566135254,985.6482800480622,804.1242793735014
1533058272.7189999,910.5570961043004,545.4481621362838,338.3888767562059,914.5184506187368,974.5155859394929
1533058272.7229998,964.3204541637824,556.3732113410288,370.2432845599476,877.2609595064972,1141.9192898321514
1533058272.7270002,1007.9958712383418,654.5422628863238,445.88017762247944,938.2283937618452,831.0310698433753
1533058272.731,954.2393944482901,807.2695356135964,425.97830676275754,958.5462473212848,1150.888219988776
1533058272.735,903.8409771402592,894.5358795680621,398.11079566135254,928.0659985878681,1100.0683638589867
1533058272.7389998,930.7192155352849,861.8054151816586,378.20077163864016,934.843240966691,798.1490740268354
1533058272.742,994.5567520408289,883.6331719772328,437.9145373807964,972.1007320789307,1100.0683638589867
1533058272.746,1055.0362290643523,927.2663439544657,501.6151998252894,1012.7433759863246,1094.0931585123208
1533058272.75,1007.9958712383418,927.2663439544657,533.4614544660407,1012.7433759863246,1049.2485077291974
1533058272.754,937.4353344993262,894.5358795680621,477.72643226323066,1002.5809808123474,801.1366767001683
1533058272.758,907.1990366222798,861.8054151816586,402.0895392006988,992.4185856383704,923.6957298097036
1533058272.762,977.7595733612953,850.9027075908293,493.64955958360633,989.0334328432162,1073.1676955257385
1533058272.766,1075.1983484953366,818.1722432044257,593.1752202081968,1005.9661336075017,935.6583847762869
1533058272.77,1038.2390503848187,785.4417788180223,577.2520928878212,1012.7433759863246,597.8633743176368
1533058272.774,974.4015138792747,752.7336560455343,561.3289655674456,982.2561904643932,418.5031375950207
1533058272.7779999,910.5570961043004,687.2727272727273,525.503967387348,938.2283937618452,597.8633743176368
1533058272.7810001,981.117632843316,741.8086068407894,577.2520928878212,1022.9057711603017,717.434824753839
1533058272.785,1071.8402890133161,720.0031916591308,640.9527553323142,1073.7108102416728,639.7143002908015
1533058272.789,967.678513645803,621.8117984999202,581.238989590158,1019.5206183651476,834.0186725167083
1533058272.793,930.7192155352849,610.9090909090909,545.4058382470699,1002.5809808123474,929.6770572929953
1533058272.7970002,944.1583347327978,621.8117984999202,497.6364562859431,992.4185856383704,851.9565328299576
1533058272.801,1014.7188714718134,610.9090909090909,441.90143408313315,1012.7433759863246,648.6832304474261
1533058272.805,1118.8806468393263,730.9058992499602,549.3845817864162,1077.095963036827,615.8012346308861
1533058272.809,1078.5564079773574,861.8054151816586,561.3289655674456,1110.9683013539125,681.5652262639661
1533058272.813,1031.516050151347,916.3636363636364,517.538327145665,1077.095963036827,588.8944441610122
1533058272.8170002,984.4756923253366,872.7304643864036,541.4270947077237,1073.7108102416728,771.2422835569614
1533058272.821,1024.7999311873057,938.1690515452949,485.6920725049137,1066.9405046513648,388.60874445181366
1533058272.824,1091.9955271748702,1047.2631522953347,581.238989590158,1083.8732054156499,203.2733023825315
1533058272.8279998,1061.7592292978238,981.8245651364434,636.9658586299774,1114.353454149067,804.1242793735014
1533058272.832,1028.1579906693264,949.0941007500398,573.2733493484749,1080.4880526204956,1001.4223764093668
1533058272.836,1001.2797522743006,970.8995159316985,565.3077091067919,1107.5831485587582,938.64598744962
1533058272.84,1061.7592292978238,1047.2631522953347,557.3502220280993,1090.6435110059583,872.88199581654
1533058272.8439999,1128.9548252853883,1014.5326879089313,589.1964766688506,1070.3256574465186,860.9254629865823
1533058272.8479998,1118.8806468393263,916.3636363636364,605.1196039892262,1117.7455437327355,1189.7515432886078
1533058272.8520002,1071.8402890133161,949.0941007500398,585.2177331295043,1131.293091701867,1106.0496913422785
1533058272.856,1007.9958712383418,916.3636363636364,597.1621169105335,1097.4207533847812,1067.1863680424467
1533058272.86,1011.3608119897928,818.1722432044257,549.3845817864162,1056.7781094773875,702.4906892505485
1533058272.863,1132.3197660368394,763.6363636363636,577.2520928878212,1070.3256574465186,418.5031375950207
1533058272.867,1139.0358850008806,829.0972924091707,684.7433937540948,1083.8732054156499,816.080812203459
1533058272.871,1041.5971098668392,861.8054151816586,652.8971391133435,1070.3256574465186,929.6770572929953
1533058272.875,1001.2797522743006,829.0972924091707,609.0983475285725,1104.1979957636042,998.4347737360339
1533058272.879,1004.6378117563212,883.6331719772328,597.1621169105335,1134.6782444970208,1118.0062241722362
1533058272.883,1068.475348261865,949.0941007500398,613.0852442309092,1114.353454149067,851.9565328299576
1533058272.887,1102.0765868903625,916.3636363636364,617.0639877702555,1131.293091701867,729.3913575837968
1533058272.891,1078.5564079773574,883.6331719772328,601.1408604498799,1127.9079389067126,723.4161522371307
1533058272.895,1031.516050151347,861.8054151816586,533.4614544660407,1056.7781094773875,681.5652262639661
1533058272.899,1004.6378117563212,709.1004840683016,461.80330494285505,982.2561904643932,448.39753073822766
1533058272.9029999,1078.5564079773574,643.6395552954946,529.4827109266944,982.2561904643932,666.6149686240498
1533058272.9060001,1132.3197660368394,752.7336560455343,541.4270947077237,1012.7433759863246,1043.2733023825315
1533058272.91,1031.516050151347,785.4417788180223,493.64955958360633,1005.9661336075017,801.1366767001683
1533058272.914,947.5163942148184,643.6395552954946,509.57268690398195,985.6482800480622,618.7888373042192
1533058272.918,987.8406330767876,589.0813341135167,465.78204848220133,975.4858848740852,866.9006683332483
1533058272.9220002,1115.5157060878755,720.0031916591308,485.6920725049137,968.7086424952622,1079.1429008724044
1533058272.926,1179.3601238628498,840.0,636.9658586299774,961.9383369049536,1007.3975817560329
1533058272.93,1122.238706321347,861.8054151816586,625.0296280119386,972.1007320789307,603.8385796643029
1533058272.934,1055.0362290643523,850.9027075908293,553.371478488753,975.4858848740852,696.5093617672568
1533058272.938,1024.7999311873057,850.9027075908293,461.80330494285505,958.5462473212848,971.5279832661599
1533058272.9420002,1095.3604679263212,981.8245651364434,465.78204848220133,951.7759417309765,768.2546808836283
1533058272.946,1172.637123629378,1210.8931326134368,573.2733493484749,951.7759417309765,875.8695984898729
1533058272.949,1058.401169815803,1178.185009840949,537.440198005387,1009.3582231911705,696.5093617672568
1533058272.9529998,940.8002752507772,1025.4577371136763,493.64955958360633,1063.5484150676957,361.70807611856543
1533058272.957,934.0772750173056,981.8245651364434,501.6151998252894,941.6135465569994,774.2298862302944
1533058272.961,1038.2390503848187,1014.5326879089313,521.5170706850113,897.5788130659367,1183.770215805316
1533058272.965,1088.6374676928497,1090.8963242725677,573.2733493484749,1033.0681663342789,968.5403805928269
1533058272.9689999,1048.3201101003108,1047.2631522953347,509.57268690398195,1022.9057711603017,687.5404316106321
1533058272.9729998,960.9555134123314,981.8245651364434,441.90143408313315,965.3234897001078,935.6583847762869
1533058272.9770002,897.1179769067875,883.6331719772328,429.9570503021038,968.7086424952622,932.6646599663283
1533058272.981,1004.6378117563212,905.460928772807,437.9145373807964,1022.9057711603017,944.6211927962859
1533058272.985,1088.6374676928497,938.1690515452949,513.5595836063187,1043.230561508256,854.9441355032907
1533058272.988,1001.2797522743006,840.0,497.6364562859431,1026.2909239554558,762.2733534003368
1533058272.992,927.3611560532643,818.1722432044257,469.7689451845381,1029.67607675061,920.7081271363706
1533058272.996,900.4760363888081,730.9058992499602,473.7476887238844,965.3234897001078,816.080812203459
1533058273.0,950.8813349662695,687.2727272727273,386.1664118803232,965.3234897001078,717.434824753839
1533058273.004,1075.1983484953366,763.6363636363636,386.1664118803232,1002.5809808123474,633.7329728075098
1533058273.008,1091.9955271748702,741.8086068407894,477.72643226323066,1053.3860198937184,741.3478904137544
1533058273.012,950.8813349662695,720.0031916591308,489.67081604426005,1073.7108102416728,947.6149176062446
1533058273.016,957.5974539303107,840.0,449.8589211618257,1039.838471924587,1159.8571501454007
1533058273.02,1007.9958712383418,959.9968083408692,477.72643226323066,1019.5206183651476,789.1801438702107
1533058273.024,1078.5564079773574,927.2663439544657,529.4827109266944,1046.6157143034104,379.639814295189
1533058273.0279999,1105.4415276418135,905.460928772807,545.4058382470699,1097.4207533847812,325.83235549206677
1533058273.0310001,1088.6374676928497,970.8995159316985,545.4058382470699,1114.353454149067,529.1056578745983
1533058273.035,1078.5564079773574,861.8054151816586,585.2177331295043,1100.8059061799354,953.5901229529105
1533058273.039,981.117632843316,665.444970477153,625.0296280119386,1043.230561508256,828.0434671700424
1533058273.043,1058.401169815803,534.5454545454545,736.4996724175584,1033.0681663342789,980.4969134227846
1533058273.0470002,1132.3197660368394,458.1818181818182,748.4359030355973,1087.258358210804,1168.8260803020255
1533058273.051,1075.1983484953366,512.7176977498804,680.7646502147485,1131.293091701867,1126.9751543288608
1533058273.055,997.9216927922798,545.4481621362838,632.9871150906312,1080.4880526204956,1034.304372225907
1533058273.059,1014.7188714718134,447.27911059098886,553.371478488753,1053.3860198937184,774.2298862302944
1533058273.063,1125.5967658033678,480.0095749773924,601.1408604498799,1002.5809808123474,1058.2174378858222
1533058273.0670002,1159.1980044318652,610.9090909090909,680.7646502147485,1046.6157143034104,1109.0372940156115
1533058273.071,1034.880990902798,600.0063833182616,629.0083715512849,1060.1632622725415,585.9068414876792
1533058273.074,1018.0769309538341,556.3732113410288,609.0983475285725,1053.3860198937184,517.1491250446405
1533058273.0779998,1061.7592292978238,567.2759189318581,573.2733493484749,999.1958280171933,681.5652262639661
1533058273.082,1075.1983484953366,621.8117984999202,589.1964766688506,1005.9661336075017,636.7266976174685
1533058273.086,1105.4415276418135,610.9090909090909,692.7008808327873,1090.6435110059583,747.3292178970461
1533058273.09,1051.6781695823315,578.1786265226874,688.722137293441,1046.6157143034104,863.9130656599153
1533058273.0939999,1014.7188714718134,643.6395552954946,668.8202664337191,1161.7733404352834,1231.5963471251466
1533058273.0979998,974.4015138792747,567.2759189318581,680.7646502147485,1134.6782444970208,1252.5218101117289
1533058273.1020002,1091.9955271748702,501.81499015905104,692.7008808327873,1066.9405046513648,863.9130656599153
1533058273.106,1122.238706321347,458.1818181818182,732.5127757152217,1104.1979957636042,938.64598744962
1533058273.11,1048.3201101003108,436.3540613862439,716.589648394846,1134.6782444970208,887.8261313198307
1533058273.113,1051.6781695823315,534.5454545454545,656.8758826526898,1100.8059061799354,1076.1552981990715
1533058273.117,957.5974539303107,523.6427469546253,593.1752202081968,1050.0008670985644,1240.5652772817714
1533058273.121,954.2393944482901,490.9122825682217,505.59394336463566,1087.258358210804,959.5714504362022
1533058273.125,1028.1579906693264,469.08452577264745,553.371478488753,1094.035600589627,783.198816386919
1533058273.129,1048.3201101003108,425.45135379541466,632.9871150906312,1087.258358210804,615.8012346308861
1533058273.133,1058.401169815803,447.27911059098886,581.238989590158,1060.1632622725415,690.5341564205908
1533058273.137,1001.2797522743006,425.45135379541466,473.7476887238844,1050.0008670985644,911.7391969797459
1533058273.141,1007.9958712383418,578.1786265226874,453.8458178641625,1026.2909239554558,807.11800418346
1533058273.145,1118.8806468393263,687.2727272727273,529.4827109266944,1050.0008670985644,529.1056578745983
1533058273.149,1081.9213487288084,578.1786265226874,549.3845817864162,1114.353454149067,684.5528289372991
1533058273.1529999,1014.7188714718134,589.0813341135167,573.2733493484749,1070.3256574465186,795.1553492168767
1533058273.1560001,981.117632843316,545.4481621362838,617.0639877702555,1110.9683013539125,989.4658435794092
1533058273.16,991.1986925588083,545.4481621362838,517.538327145665,1097.4207533847812,1273.4472730983114
1533058273.164,1105.4415276418135,632.7368477046651,489.67081604426005,1094.035600589627,932.6646599663283
1533058273.168,1091.9955271748702,567.2759189318581,537.440198005387,1148.2257924661521,854.9441355032907
1533058273.1720002,1031.516050151347,589.0813341135167,477.72643226323066,1043.230561508256,974.5155859394929
1533058273.176,1001.2797522743006,687.2727272727273,457.82456140350877,1063.5484150676957,663.6273659507168
1533058273.18,971.0365731278237,632.7368477046651,453.8458178641625,1066.9405046513648,711.4596194071731
1533058273.184,1061.7592292978238,643.6395552954946,541.4270947077237,1063.5484150676957,1106.0496913422785
1533058273.188,1075.1983484953366,741.8086068407894,656.8758826526898,1182.0981307832378,1282.416203254936
1533058273.1920002,1051.6781695823315,774.539071227193,605.1196039892262,1144.8406396709981,1237.5776746084384
1533058273.195,981.117632843316,785.4417788180223,513.5595836063187,1053.3860198937184,1123.9814295189021
1533058273.199,866.881679029741,818.1722432044257,457.82456140350877,995.8106752220394,684.5528289372991
1533058273.2029998,1018.0769309538341,840.0,533.4614544660407,995.8106752220394,926.6894546196622
1533058273.207,1081.9213487288084,829.0972924091707,601.1408604498799,1050.0008670985644,926.6894546196622
1533058273.211,971.0365731278237,807.2695356135964,621.0427313096018,1131.293091701867,1055.2298352124892
1533058273.215,927.3611560532643,687.2727272727273,621.0427313096018,1104.1979957636042,1506.61496862405
1533058273.2189999,897.1179769067875,698.1754348635566,529.4827109266944,1019.5206183651476,819.0745370134177
1533058273.2229998,977.7595733612953,927.2663439544657,533.4614544660407,1036.453319129433,433.4472730983113
1533058273.2270002,1081.9213487288084,959.9968083408692,664.8333697313824,968.7086424952622,950.6025202795776
1533058273.231,1011.3608119897928,861.8054151816586,668.8202664337191,968.7086424952622,869.8882710065812
1533058273.235,927.3611560532643,840.0,593.1752202081968,1026.2909239554558,505.1925922146829
1533058273.238,907.1990366222798,752.7336560455343,537.440198005387,1016.1285287814787,732.3789602571297
1533058273.242,1051.6781695823315,730.9058992499602,525.503967387348,1022.9057711603017,878.857201163206
1533058273.246,1199.5153620244039,785.4417788180223,521.5170706850113,1138.063397292175,935.6583847762869
1533058273.25,1055.0362290643523,850.9027075908293,465.78204848220133,1178.7129779880836,878.857201163206
1533058273.254,984.4756923253366,970.8995159316985,437.9145373807964,1141.455486875844,968.5403805928269
1533058273.258,937.4353344993262,916.3636363636364,469.7689451845381,1131.293091701867,971.5279832661599
1533058273.262,964.3204541637824,774.539071227193,497.6364562859431,1083.8732054156499,765.2670782102954
1533058273.266,1085.279408210829,818.1722432044257,565.3077091067919,1100.8059061799354,744.3416152237131
1533058273.27,1075.1983484953366,840.0,601.1408604498799,1124.515849323044,765.2670782102954
1533058273.274,1007.9958712383418,818.1722432044257,621.0427313096018,1114.353454149067,828.0434671700424
1533058273.2779999,967.678513645803,829.0972924091707,549.3845817864162,1070.3256574465186,834.0186725167083
1533058273.2810001,974.4015138792747,872.7304643864036,493.64955958360633,1029.67607675061,774.2298862302944
1533058273.285,1078.5564079773574,905.460928772807,632.9871150906312,1053.3860198937184,567.9689811744299
1533058273.289,1051.6781695823315,927.2663439544657,688.722137293441,1050.0008670985644,582.9131166777205
1533058273.293,1011.3608119897928,916.3636363636364,656.8758826526898,1026.2909239554558,1306.3292689148514
1533058273.2970002,1048.3201101003108,796.3668280227672,573.2733493484749,1029.67607675061,1177.7888883220244
1533058273.301,944.1583347327978,687.2727272727273,533.4614544660407,1022.9057711603017,845.975205346666
1533058273.305,1031.516050151347,698.1754348635566,577.2520928878212,1043.230561508256,1079.1429008724044
1533058273.309,1128.9548252853883,698.1754348635566,557.3502220280993,1073.7108102416728,848.962808019999
1533058273.313,1007.9958712383418,654.5422628863238,573.2733493484749,1033.0681663342789,582.9131166777205
1533058273.3170002,876.9558574758029,687.2727272727273,609.0983475285725,972.1007320789307,618.7888373042192
