timestamps,TP9,AF7,AF8,TP10,Right AUX
1533222741.5770001,828.0469291463135,1253.9923140225146,815.6582293951409,962.6778815857969,649.2338392060075
1533222741.58,807.5604461474103,1271.4684051996196,780.5893834925748,960.8022137592811,532.3089849288452
1533222741.5839999,857.0720691657527,1245.2542684339621,888.2707826509431,979.5320419737527,781.5407236254791
1533222741.5879998,921.9511768709326,1267.1016194881875,970.7861615133877,1020.7353626126743,1135.384130651683
1533222741.592,937.3151649742231,1288.9444963767248,935.3049795275416,1048.8281870736184,1166.1544924644227
1533222741.596,937.3151649742231,1293.315756253845,813.5957040277507,1056.3231869366284,1159.9978994906264
1533222741.6,916.8286819753199,1291.1323633981287,785.5399513449056,1041.3370229321351,744.6137688389434
1533222741.6039999,950.9763168903717,1297.6825419652773,919.6269139020088,1030.1021945806735,673.8476080449509
1533222741.6079998,991.949282888178,1304.2371946981136,965.4224126267867,1041.3370229321351,1163.079346741585
1533222741.6120002,961.2178100980502,1284.5777106652924,950.5698641188042,1045.0845228636401,1270.7661607939926
1533222741.6160002,935.6088322035345,1280.2064507881723,866.8174770065198,1031.9740266856627,1144.615869348317
1533222741.619,892.9260368514931,1282.3898436438883,787.1909855800062,1020.7353626126743,1058.4613768838944
1533222741.623,901.4611972884828,1282.3898436438883,863.1039174040291,1028.2265267541577,889.2338392060075
1533222741.627,952.6826496610604,1282.3898436438883,918.3890607011786,1018.8635305076851,1018.4592763745209
1533222741.631,956.0953152024379,1284.5777106652924,931.1790838417709,1003.8812022247184,806.1544924644227
1533222741.635,921.9511768709326,1288.9444963767248,887.0337744011033,998.2618701882243,569.2296381872604
1533222741.639,862.1945640613652,1269.2850123439036,794.2040787997271,990.770706046741,947.6931155805282
1533222741.643,829.7567585005486,1251.8089211667984,845.775662494386,998.2618701882243,1086.1565929737963
1533222741.647,875.8522193939673,1247.4376612896783,918.8013967844586,994.5143702567194,852.3068844194718
1533222741.651,927.073671766545,1260.546966755351,963.7722233426764,988.8950382202252,923.0793467415848
1533222741.655,896.342198976417,1264.9137524667833,927.8778603225601,966.4215457957753,1052.3110854382187
1533222741.658,831.4630912712372,1247.4376612896783,797.505302318938,934.5812214033261,553.8476080449509
1533222741.6620002,799.0252857104206,1247.4376612896783,849.0768860135968,913.9795610838653,556.9227537677887
1533222741.6660001,838.2919189375382,1264.9137524667833,924.1651456710596,904.6165648373928,1129.2338392060074
1533222741.67,857.0720691657527,1240.8830085568418,944.7937791489231,910.235896873887,947.6931155805282
1533222741.674,817.8054359386351,1232.1449629682893,913.4384928488478,898.9972328008987,621.5386231161057
1533222741.678,780.2416388986595,1249.6210541453945,798.7423105687778,910.235896873887,858.4634773932679
1533222741.6820002,771.7064784616699,1232.1449629682893,836.2868628730045,921.4707252253486,1043.079346741585
1533222741.686,836.5855861668496,1219.0356575026167,912.2006396480176,921.4707252253486,996.9206532584152
1533222741.69,882.6810470602683,1229.961570112573,900.2361336249755,923.3463930518644,855.38833167043
1533222741.694,887.8035419558807,1232.1449629682893,920.8647671028391,925.2182251568536,790.7724623221131
1533222741.698,860.4882312906765,1227.7737030911692,872.5935619764008,934.5812214033261,950.7682613033661
1533222741.701,828.0469291463135,1243.066401412558,835.8745267897245,940.2005534398203,1083.0751457228378
1533222741.705,867.3170589569776,1251.8089211667984,870.5301916580203,930.8375571933477,655.384130651683
1533222741.7089999,932.1961666621575,1247.4376612896783,976.5622464832687,936.4568892298419,778.4592763745209
1533222741.7129998,933.9024994328458,1245.2542684339621,949.3320109179739,932.709389298337,803.0793467415848
1533222741.717,901.4611972884828,1243.066401412558,796.2674491181077,923.3463930518644,415.38413065168305
1533222741.721,894.6323696221818,1245.2542684339621,803.6937233720989,902.7447327324036,704.6179698576905
1533222741.725,892.9260368514931,1234.3283558240055,892.396678336714,891.5060686594153,796.9227537677887
1533222741.7289999,887.8035419558807,1227.7737030911692,967.0726019108969,913.9795610838653,1055.3862311610565
1533222741.7329998,886.0972091851921,1232.1449629682893,918.8013967844586,917.7270610153703,1076.9248542771622
1533222741.7370002,858.7784019364414,1219.0356575026167,766.1491710678723,887.7585687279103,643.0772462322113
1533222741.74,819.5117687093237,1214.6688717911843,777.7013410076344,859.6657442669663,818.4613768838943
1533222741.744,814.3892738137113,1216.8522646469005,876.7194576621716,865.2850763034604,827.6931155805282
1533222741.748,846.8270793745279,1197.1883064483914,952.2200534029143,865.2850763034604,1027.6910150711547
1533222741.752,879.268381518891,1205.9308262026318,919.2145778187288,878.3955724814379,1156.9227537677887
1533222741.756,839.9982517082269,1212.4810047697802,793.3794066331672,884.014904517932,867.6952160899018
1533222741.76,802.4379512517978,1208.114219058348,757.0727075297708,869.0287405134387,864.6137688389434
1533222741.764,846.8270793745279,1210.297611914064,841.6506117596056,874.6480725499329,356.92485427716224
1533222741.768,862.1945640613652,1166.6073839713015,941.9057366639826,870.9044083399546,363.07514572283776
1533222741.772,858.7784019364414,1155.6814713613448,940.6678834631523,889.6342365544261,1120.0021005093736
1533222741.776,839.9982517082269,1179.7122152712861,823.0845036491322,869.0287405134387,1310.768261303366
1533222741.779,792.192961460573,1179.7122152712861,747.9962439916693,803.480095345078,993.8455075355773
1533222741.783,783.6578010235834,1170.9741696827336,837.5247160738347,803.480095345078,738.4634773932679
1533222741.7870002,822.9279308342475,1168.7907768270177,920.4515860685688,842.8115838790104,895.384130651683
1533222741.7910001,838.2919189375382,1173.1575625384498,908.4870800455268,854.046412230472,667.6910150711548
1533222741.795,807.5604461474103,1186.2668680041227,850.7270752977071,840.9359160524946,649.2338392060075
1533222741.799,752.9263282334554,1197.1883064483914,767.3870242687026,824.0817556645387,787.6910150711548
1533222741.803,770.0001456909812,1199.3761734697953,853.2027816993676,809.0955916600454,1043.079346741585
1533222741.8070002,834.8757568126144,1173.1575625384498,910.9627864471873,820.3342557330337,803.0793467415848
1533222741.811,836.5855861668496,1160.052731238465,928.7033774401103,850.3027480204937,369.2317386966339
1533222741.815,788.7802959191957,1160.052731238465,897.3480911400351,854.046412230472,741.5386231161057
1533222741.819,768.2903163367461,1170.9741696827336,810.7076615428102,846.5552480889887,1138.4592763745209
1533222741.822,768.2903163367461,1175.345429559854,850.314739214427,854.046412230472,1175.3862311610565
1533222741.826,788.7802959191957,1162.2361240941812,925.8153349551701,846.5552480889887,1012.3089849288452
1533222741.83,804.1442840224864,1144.7600329170762,947.2694855505837,833.4447519110113,929.2296381872604
1533222741.8339999,751.2199954627667,1105.4365906857458,897.760427223315,805.3519274500671,655.384130651683
1533222741.8379998,677.8057273205973,1050.8204501330265,812.3578508269204,762.2729389846297,898.4592763745209
1533222741.842,664.1445754044487,1013.6804007574124,840.8250946420552,754.7817748431464,950.7682613033661
1533222741.846,682.9247256326632,994.0164425589032,935.7173156108216,732.3082824186964,873.8455075355773
1533222741.85,722.1948554433274,1007.125748024576,964.1845594259566,724.8171182772131,849.2317386966339
1533222741.8539999,730.7300158803171,1028.9730990788012,924.5774817543396,736.0519466286747,796.9227537677887
1533222741.8579998,674.3895651956735,1039.8945375230699,820.6087972474717,728.5607824871914,495.3883316704301
1533222741.861,643.6580924055455,1035.5277518116377,856.0908241843081,724.8171182772131,692.3110854382188
1533222741.865,688.0472205282756,1015.8637936131285,960.4718447744559,760.4011068796406,1067.6931155805282
1533222741.869,749.5101661085316,1018.0471864688446,965.0100765435067,797.8607633085838,926.1544924644227
1533222741.873,746.0975005671543,1042.082404544474,946.8563045163136,801.6044275185621,790.7724623221131
1533222741.877,684.6345549868984,1068.2965413101315,868.05533020735,799.732595413573,664.615869348317
1533222741.881,655.609414967459,1061.7418885772952,851.551747464267,790.3695991671004,747.6952160899018
1533222741.885,694.8760481945767,1066.1131484544155,966.660265827617,809.0955916600454,799.9978994906264
1533222741.889,746.0975005671543,1090.1438923643568,989.764605707141,839.0640839475054,935.3862311610566
1533222741.893,730.7300158803171,1077.0345868986842,974.4988761648882,842.8115838790104,1110.7703618127396
1533222741.897,691.4633826531993,1068.2965413101315,924.5774817543396,837.1922518425163,1006.1523919550491
1533222741.9,679.5120600912859,1092.327285220073,863.5170984382993,825.953587769528,486.15659297379614
1533222741.904,682.9247256326632,1103.2487236643417,974.0865400816082,809.0955916600454,492.3068844194717
1533222741.908,739.2686729008533,1111.9912434185821,1064.0273482470536,837.1922518425163,1159.9978994906264
1533222741.9120002,759.7551558997565,1114.1746362742983,1014.9314709540553,872.7762404449437,1104.6137688389435
1533222741.9160001,708.5372001107253,1140.3887730399558,897.760427223315,880.267404586427,787.6910150711548
1533222741.92,717.072360547715,1162.2361240941812,894.4600486550945,880.267404586427,833.8497085543245
1533222741.924,770.0001456909812,1153.4980785056287,1000.4912585293528,912.1077289788761,1095.3820301423095
1533222741.928,821.2181014800124,1153.4980785056287,1055.3632207922321,925.2182251568536,898.4592763745209
1533222741.9320002,865.610726186289,1170.9741696827336,1055.3632207922321,923.3463930518644,1098.4634773932678
1533222741.936,846.8270793745279,1164.4195169498973,938.6053580957621,953.3110496177977,1123.0772462322113
1533222741.94,799.0252857104206,1166.6073839713015,897.760427223315,934.5812214033261,873.8455075355773
1533222741.9429998,817.8054359386351,1186.2668680041227,989.764605707141,910.235896873887,864.6137688389434
1533222741.947,860.4882312906765,1195.0049135926752,1054.1253675914018,923.3463930518644,1039.9978994906264
1533222741.951,891.2197040808045,1199.3761734697953,1048.7624636557912,930.8375571933477,1273.847608044951
1533222741.955,874.1458866232787,1199.3761734697953,965.0100765435067,955.1828817227869,923.0793467415848
1533222741.9589999,817.8054359386351,1212.4810047697802,904.7743653940263,951.4392175128086,643.0772462322113
1533222741.9629998,804.1442840224864,1208.114219058348,983.5753397029897,913.9795610838653,627.6952160899018
1533222741.967,870.7297244983548,1214.6688717911843,1051.2381700574517,925.2182251568536,993.8455075355773
1533222741.971,901.4611972884828,1229.961570112573,1046.2867572541306,938.3287213348311,1104.6137688389435
1533222741.975,863.9008968320538,1249.6210541453945,1005.0294902984035,940.2005534398203,886.1523919550491
1533222741.9789999,822.9279308342475,1271.4684051996196,922.1017753526793,947.6917175813036,935.3862311610566
1533222741.982,819.5117687093237,1280.2064507881723,979.8626250514892,949.5673854078194,883.0772462322113
1533222741.986,843.4144138331507,1262.7303596110671,1061.9648228796634,960.8022137592811,889.2338392060075
1533222741.99,855.3657363950641,1278.0230579324561,1027.7206491436573,964.549713690786,1095.3820301423095
1533222741.994,863.9008968320538,1317.3465001637865,1010.8055752682845,968.2933779007644,843.0751457228378
1533222741.998,821.2181014800124,1317.3465001637865,968.3104551117272,968.2933779007644,670.7724623221131
1533222742.002,805.8541133767217,1310.79184743095,986.0510461046503,947.6917175813036,1033.847608044951
1533222742.006,857.0720691657527,1304.2371946981136,1054.1253675914018,942.0723855448094,1403.079346741585
1533222742.01,875.8522193939673,1297.6825419652773,1056.1887379097825,979.5320419737527,1024.615869348317
1533222742.014,855.3657363950641,1278.0230579324561,1027.7206491436573,981.4038740787419,744.6137688389434
1533222742.018,833.1694240419258,1280.2064507881723,922.1017753526793,962.6778815857969,732.3068844194718
1533222742.0210001,829.7567585005486,1293.315756253845,943.9682620313728,968.2933779007644,667.6910150711548
1533222742.025,855.3657363950641,1284.5777106652924,1055.3632207922321,981.4038740787419,803.0793467415848
1533222742.029,913.4125198503963,1291.1323633981287,1035.9724405151987,998.2618701882243,870.7703618127396
1533222742.033,927.073671766545,1284.5777106652924,968.7227911950072,1013.244198471191,1110.7703618127396
1533222742.0370002,904.8773594134066,1269.2850123439036,977.3869186498289,1003.8812022247184,1043.079346741585
1533222742.0410001,874.1458866232787,1267.1016194881875,968.3104551117272,983.2795419052577,643.0772462322113
1533222742.045,898.0485317471056,1267.1016194881875,1005.0294902984035,973.9127099372586,652.3089849288452
1533222742.049,942.4376598698356,1273.6517980553358,1081.3556031566966,964.549713690786,827.6931155805282
1533222742.053,920.2448441002438,1267.1016194881875,1035.5601044319187,966.4215457957753,640.0021005093736
1533222742.0570002,872.4395538525899,1271.4684051996196,913.0253118145775,953.3110496177977,498.46347739326785
1533222742.061,816.0956065844,1273.6517980553358,908.4870800455268,934.5812214033261,636.9269547865357
1533222742.064,831.4630912712372,1260.546966755351,978.2124357673792,947.6917175813036,904.615869348317
1533222742.0679998,863.9008968320538,1251.8089211667984,1062.3771589629434,936.4568892298419,956.9248542771622
1533222742.072,857.0720691657527,1245.2542684339621,1062.7894950462232,927.0900572618428,1043.079346741585
1533222742.076,812.6829410430227,1258.359099733947,913.850828932128,912.1077289788761,1116.920653258415
1533222742.08,783.6578010235834,1269.2850123439036,878.3696469462818,895.2497328693937,910.7724623221131
1533222742.0839999,795.6091235854968,1253.9923140225146,974.4988761648882,882.1392366914162,1000.0021005093736
1533222742.0879998,804.1442840224864,1249.6210541453945,1027.7206491436573,859.6657442669663,1073.8434070262037
1533222742.092,829.7567585005486,1267.1016194881875,1025.658123776267,885.8867366229211,824.6179698576905
1533222742.096,812.6829410430227,1240.8830085568418,934.0671263267113,895.2497328693937,960.0
1533222742.1,775.1226405865937,1216.8522646469005,860.6290559533588,874.6480725499329,1249.2338392060074
1533222742.103,821.2181014800124,1232.1449629682893,945.206115232203,880.267404586427,1000.0021005093736
1533222742.107,872.4395538525899,1232.1449629682893,1002.9669649310133,889.6342365544261,809.2296381872604
1533222742.111,886.0972091851921,1243.066401412558,988.9390885895909,887.7585687279103,935.3862311610566
1533222742.115,877.5585521646559,1251.8089211667984,929.1157135233904,885.8867366229211,1126.152391955049
1533222742.119,810.976608272334,1234.3283558240055,855.2653070667578,878.3955724814379,870.7703618127396
1533222742.123,788.7802959191957,1201.5595663255115,958.4084744560754,870.9044083399546,1172.3047839100982
1533222742.127,841.708081062462,1190.6381278812428,1000.0789224460727,887.7585687279103,1298.4613768838944
1533222742.131,853.6594036243755,1205.9308262026318,991.0016139569809,906.488396942382,520.0021005093736
1533222742.135,802.4379512517978,1214.6688717911843,952.6323894861944,887.7585687279103,723.0751457228378
1533222742.139,770.0001456909812,1208.114219058348,849.4892220968768,865.2850763034604,941.5365226067321
1533222742.1420002,778.5353061279709,1205.9308262026318,910.137269329637,867.1569084084496,787.6910150711548
1533222742.1460001,799.0252857104206,1214.6688717911843,938.1921770614919,891.5060686594153,864.6137688389434
1533222742.15,804.1442840224864,1210.297611914064,948.9196748346941,889.6342365544261,769.2338392060075
1533222742.154,780.2416388986595,1199.3761734697953,948.0941577171436,863.4132441984711,880.0021005093736
1533222742.158,747.8038333378429,1181.9000822926903,811.5323337093702,842.8115838790104,1064.6179698576905
1533222742.1620002,734.1461780052408,1157.864864217061,864.7541066881392,844.6834159839996,867.6952160899018
1533222742.1660001,763.1713180246802,1155.6814713613448,967.8981190284472,859.6657442669663,627.6952160899018
1533222742.17,792.192961460573,1173.1575625384498,934.0671263267113,852.1745801254829,695.3862311610566
1533222742.174,797.3154563561855,1168.7907768270177,923.7528095877796,837.1922518425163,723.0751457228378
1533222742.178,740.9750056715419,1151.3146856499125,893.2221954542642,809.0955916600454,547.6910150711548
1533222742.1820002,713.6596950063376,1155.6814713613448,888.2707826509431,792.2414312720897,667.6910150711548
1533222742.185,807.5604461474103,1162.2361240941812,932.0037560083308,807.2237595550563,707.6931155805282
1533222742.189,857.0720691657527,1164.4195169498973,945.206115232203,827.8254198745171,849.2317386966339
1533222742.1929998,819.5117687093237,1173.1575625384498,944.3814430656431,855.9182443354613,806.1544924644227
1533222742.197,800.7316184811092,1199.3761734697953,853.6151177826475,880.267404586427,707.6931155805282
1533222742.201,781.9514682528946,1199.3761734697953,845.775662494386,874.6480725499329,963.0751457228378
1533222742.205,819.5117687093237,1184.0834751484065,910.137269329637,893.3779007644046,1027.6910150711547
1533222742.2089999,851.9495742701404,1197.1883064483914,941.9057366639826,906.488396942382,1021.5407236254791
1533222742.2129998,826.3405963756247,1199.3761734697953,937.3675048949318,898.9972328008987,1138.4592763745209
1533222742.217,788.7802959191957,1184.0834751484065,880.844508396952,895.2497328693937,1153.847608044951
1533222742.221,775.1226405865937,1188.4502608598389,858.5656856349783,869.0287405134387,806.1544924644227
1533222742.224,821.2181014800124,1203.7429591812277,936.1296516941015,870.9044083399546,670.7724623221131
1533222742.228,877.5585521646559,1197.1883064483914,996.3653628435819,895.2497328693937,855.38833167043
1533222742.232,877.5585521646559,1197.1883064483914,968.7227911950072,900.8690649058879,996.9206532584152
1533222742.236,824.6342636049361,1197.1883064483914,859.8035388358086,895.2497328693937,1335.3820301423095
1533222742.24,785.364133794272,1205.9308262026318,824.7346929332424,902.7447327324036,1289.2296381872604
1533222742.244,814.3892738137113,1203.7429591812277,928.2910413568303,913.9795610838653,1083.0751457228378
1533222742.248,870.7297244983548,1201.5595663255115,1007.0920156657937,919.5988931203594,1224.6137688389435
1533222742.252,857.0720691657527,1203.7429591812277,951.8077173196344,919.5988931203594,990.7703618127396
1533222742.256,812.6829410430227,1203.7429591812277,862.279245237469,893.3779007644046,621.5386231161057
1533222742.26,795.6091235854968,1199.3761734697953,870.5301916580203,878.3955724814379,538.4655779026414
1533222742.2629998,778.5353061279709,1184.0834751484065,947.2694855505837,878.3955724814379,803.0793467415848
1533222742.2670002,792.192961460573,1173.1575625384498,968.7227911950072,882.1392366914162,1181.5365226067322
1533222742.2710001,817.8054359386351,1168.7907768270177,965.4224126267867,910.235896873887,1086.1565929737963
1533222742.275,793.9027908148081,1179.7122152712861,909.312597163077,887.7585687279103,793.8476080449509
1533222742.279,770.0001456909812,1195.0049135926752,836.6991989562845,865.2850763034604,781.5407236254791
1533222742.283,775.1226405865937,1210.297611914064,914.2631650154078,893.3779007644046,630.7703618127396
1533222742.2870002,829.7567585005486,1216.8522646469005,972.8486868807779,880.267404586427,747.6952160899018
1533222742.2910001,860.4882312906765,1203.7429591812277,985.6387100213702,887.7585687279103,569.2296381872604
1533222742.295,805.8541133767217,1190.6381278812428,928.2910413568303,904.6165648373928,735.38833167043
1533222742.299,770.0001456909812,1195.0049135926752,813.1825229934805,884.014904517932,981.5386231161057
1533222742.302,773.4128112323585,1192.821520736959,904.7743653940263,870.9044083399546,993.8455075355773
1533222742.306,807.5604461474103,1190.6381278812428,960.0586637401856,865.2850763034604,806.1544924644227
1533222742.31,834.8757568126144,1201.5595663255115,988.9390885895909,882.1392366914162,464.61796985769047
1533222742.314,776.8289733572823,1208.114219058348,968.7227911950072,889.6342365544261,892.3089849288452
1533222742.3179998,751.2199954627667,1199.3761734697953,843.3008010437158,865.2850763034604,1083.0751457228378
1533222742.322,761.4614886704451,1188.4502608598389,900.6484697082556,865.2850763034604,941.5365226067321
1533222742.326,787.0739631485071,1195.0049135926752,961.7096979752862,882.1392366914162,873.8455075355773
1533222742.33,822.9279308342475,1192.821520736959,991.4147949912515,893.3779007644046,1006.1523919550491
1533222742.3339999,802.4379512517978,1195.0049135926752,957.1706212552451,906.488396942382,984.6137688389434
1533222742.3379998,764.8776507953688,1205.9308262026318,848.6637049793264,874.6480725499329,966.1565929737961
1533222742.342,758.0488231290677,1190.6381278812428,868.4676662906301,842.8115838790104,895.384130651683
1533222742.345,793.9027908148081,1177.5288224155702,930.7659028075005,869.0287405134387,316.92275376778866
1533222742.349,831.4630912712372,1181.9000822926903,945.206115232203,887.7585687279103,258.46347739326785
1533222742.353,834.8757568126144,1177.5288224155702,964.5968955092363,872.7762404449437,729.2317386966339
1533222742.357,804.1442840224864,1192.821520736959,913.0253118145775,880.267404586427,738.4634773932679
1533222742.361,790.4866286898844,1195.0049135926752,881.6700255145023,884.014904517932,612.3068844194718
1533222742.365,846.8270793745279,1186.2668680041227,959.2339915736256,891.5060686594153,643.0772462322113
1533222742.369,915.1223492046314,1199.3761734697953,949.3320109179739,906.488396942382,849.2317386966339
1533222742.373,892.9260368514931,1199.3761734697953,968.7227911950072,921.4707252253486,830.7682613033661
1533222742.377,850.2432414994518,1201.5595663255115,915.913354299518,927.0900572618428,729.2317386966339
1533222742.381,838.2919189375382,1203.7429591812277,851.139411380987,921.4707252253486,806.1544924644227
1533222742.3839998,862.1945640613652,1197.1883064483914,935.3049795275416,938.3287213348311,713.8497085543245
1533222742.3879998,879.268381518891,1184.0834751484065,1033.0843980302584,958.9303816542919,953.8434070262039
1533222742.3920002,855.3657363950641,1173.1575625384498,971.6108336799476,957.0585495493027,1126.152391955049
1533222742.3960001,817.8054359386351,1173.1575625384498,873.4182341429608,940.2005534398203,1163.079346741585
1533222742.4,809.2667789180989,1188.4502608598389,886.2082572835529,904.6165648373928,1070.768261303366
1533222742.404,828.0469291463135,1192.821520736959,955.9336130054052,902.7447327324036,1107.6952160899018
1533222742.408,838.2919189375382,1195.0049135926752,1007.5051967000641,930.8375571933477,1027.6910150711547
1533222742.4120002,848.536908728763,1197.1883064483914,989.764605707141,936.4568892298419,723.0751457228378
1533222742.4160001,848.536908728763,1186.2668680041227,885.3827401660028,945.8198854763144,646.1523919550491
1533222742.42,807.5604461474103,1192.821520736959,863.5170984382993,923.3463930518644,916.9227537677887
1533222742.4229999,824.6342636049361,1195.0049135926752,925.8153349551701,912.1077289788761,803.0793467415848
1533222742.427,879.268381518891,1184.0834751484065,977.3869186498289,943.9480533713253,587.6931155805282
1533222742.431,887.8035419558807,1192.821520736959,995.1275096427516,942.0723855448094,501.53862311610567
1533222742.435,869.0233917276662,1210.297611914064,900.2361336249755,945.8198854763144,452.31108543821875
1533222742.439,850.2432414994518,1216.8522646469005,824.7346929332424,940.2005534398203,692.3110854382188
1533222742.4429998,851.9495742701404,1223.4069173797368,931.5914199250508,919.5988931203594,670.7724623221131
1533222742.447,887.8035419558807,1229.961570112573,1011.2179113515645,930.8375571933477,895.384130651683
1533222742.451,857.0720691657527,1214.6688717911843,998.8410692452425,936.4568892298419,1043.079346741585
1533222742.455,797.3154563561855,1197.1883064483914,939.0176941790423,938.3287213348311,1095.3820301423095
1533222742.4589999,790.4866286898844,1225.590310235453,852.7896006650973,940.2005534398203,1129.2338392060074
1533222742.4629998,819.5117687093237,1223.4069173797368,917.1512075003483,951.4392175128086,1101.5386231161056
1533222742.466,855.3657363950641,1195.0049135926752,950.5698641188042,966.4215457957753,1021.5407236254791
1533222742.47,880.9747142895797,1195.0049135926752,967.0726019108969,943.9480533713253,1021.5407236254791
1533222742.474,848.536908728763,1214.6688717911843,925.8153349551701,942.0723855448094,1323.0751457228378
1533222742.478,817.8054359386351,1225.590310235453,826.798063251623,938.3287213348311,1012.3089849288452
1533222742.482,821.2181014800124,1201.5595663255115,889.9218168860438,893.3779007644046,938.4613768838943
1533222742.486,841.708081062462,1208.114219058348,925.4029988718898,904.6165648373928,923.0793467415848
1533222742.49,886.0972091851921,1223.4069173797368,960.4718447744559,942.0723855448094,590.7682613033661
1533222742.494,857.0720691657527,1214.6688717911843,939.0176941790423,934.5812214033261,867.6952160899018
1533222742.498,790.4866286898844,1214.6688717911843,840.4127585587753,925.2182251568536,1046.1544924644227
1533222742.502,797.3154563561855,1219.0356575026167,888.6839636852135,945.8198854763144,987.6952160899018
1533222742.505,822.9279308342475,1229.961570112573,956.3459490886852,960.8022137592811,919.9978994906264
1533222742.5089998,850.2432414994518,1234.3283558240055,979.4502889682094,972.0408778322694,747.6952160899018
1533222742.5129998,855.3657363950641,1227.7737030911692,957.5838022895155,973.9127099372586,824.6179698576905
1533222742.5170002,814.3892738137113,1219.0356575026167,847.8390328127665,958.9303816542919,923.0793467415848
1533222742.5210001,821.2181014800124,1199.3761734697953,861.0413920366389,962.6778815857969,1089.231738696634
1533222742.525,857.0720691657527,1199.3761734697953,950.5698641188042,972.0408778322694,1089.231738696634
1533222742.529,892.9260368514931,1199.3761734697953,932.4169370426011,966.4215457957753,1018.4592763745209
1533222742.533,839.9982517082269,1205.9308262026318,908.900261079797,958.9303816542919,799.9978994906264
1533222742.5370002,764.8776507953688,1223.4069173797368,890.3341529693238,943.9480533713253,987.6952160899018
1533222742.5410001,744.3911677964657,1214.6688717911843,858.1533495516983,927.0900572618428,1070.768261303366
1533222742.544,805.8541133767217,1205.9308262026318,936.9551688116519,932.709389298337,809.2296381872604
1533222742.5479999,906.5836921840953,1199.3761734697953,977.3869186498289,947.6917175813036,950.7682613033661
1533222742.552,899.7548645177942,1214.6688717911843,923.3396285535093,923.3463930518644,676.9227537677887
1533222742.556,853.6594036243755,1225.590310235453,847.0135156952163,884.014904517932,701.5365226067321
1533222742.56,816.0956065844,1210.297611914064,827.622735418183,891.5060686594153,883.0772462322113
1533222742.564,797.3154563561855,1203.7429591812277,896.1102379392048,893.3779007644046,744.6137688389434
1533222742.5679998,860.4882312906765,1214.6688717911843,958.4084744560754,898.9972328008987,833.8497085543245
1533222742.572,874.1458866232787,1212.4810047697802,938.1921770614919,906.488396942382,569.2296381872604
1533222742.576,804.1442840224864,1212.4810047697802,830.9231139864035,874.6480725499329,769.2338392060075
1533222742.58,770.0001456909812,1210.297611914064,778.1136770909143,865.2850763034604,978.4634773932679
1533222742.5839999,785.364133794272,1216.8522646469005,893.2221954542642,882.1392366914162,953.8434070262039
1533222742.5870001,841.708081062462,1214.6688717911843,935.3049795275416,882.1392366914162,975.3820301423095
1533222742.591,846.8270793745279,1212.4810047697802,938.6053580957621,884.014904517932,815.3862311610566
1533222742.595,800.7316184811092,1223.4069173797368,867.2298130897998,874.6480725499329,824.6179698576905
1533222742.599,773.4128112323585,1210.297611914064,771.9252560377533,839.0640839475054,778.4592763745209
1533222742.603,756.3424903583791,1201.5595663255115,880.432172313672,840.9359160524946,809.2296381872604
1533222742.607,781.9514682528946,1195.0049135926752,871.3557087755705,865.2850763034604,787.6910150711548
1533222742.611,821.2181014800124,1177.5288224155702,870.9433726922906,893.3779007644046,840.0
1533222742.615,800.7316184811092,1179.7122152712861,905.1867014773063,930.8375571933477,907.6910150711548
1533222742.619,775.1226405865937,1195.0049135926752,790.9037002315066,917.7270610153703,720.0
1533222742.623,785.364133794272,1179.7122152712861,842.0629478428855,913.9795610838653,775.384130651683
1533222742.6260002,826.3405963756247,1181.9000822926903,860.6290559533588,927.0900572618428,849.2317386966339
1533222742.63,848.536908728763,1186.2668680041227,874.2437512605111,897.1254006959094,886.1523919550491
1533222742.6339998,809.2667789180989,1179.7122152712861,893.2221954542642,876.5237403764487,553.8476080449509
1533222742.6379998,780.2416388986595,1184.0834751484065,793.3794066331672,887.7585687279103,455.38623116105657
1533222742.6420002,775.1226405865937,1179.7122152712861,826.3848822173527,885.8867366229211,553.8476080449509
1533222742.6460001,833.1694240419258,1179.7122152712861,871.3557087755705,895.2497328693937,181.5407236254791
1533222742.65,851.9495742701404,1166.6073839713015,914.6755010986877,906.488396942382,449.22963818726043
1533222742.654,766.5839835660574,1122.9126818628508,862.279245237469,872.7762404449437,923.0793467415848
1533222742.658,705.1210379858015,1090.1438923643568,750.4719503933298,829.7010877010329,836.9248542771622
1533222742.6620002,698.2922103195004,1079.2179797544002,802.4558701712687,816.5905915230554,1110.7703618127396
1533222742.665,754.632661004144,1077.0345868986842,863.9294345215793,814.7149236965396,1230.7703618127396
1533222742.669,807.5604461474103,1070.4799341658477,885.7959212002731,812.8430915915504,1046.1544924644227
1533222742.6729999,778.5353061279709,1061.7418885772952,820.1964611641916,805.3519274500671,833.8497085543245
1533222742.677,723.901188214016,1077.0345868986842,774.8132985226938,788.4939313405847,1067.6931155805282
1533222742.681,737.5588435466182,1090.1438923643568,817.7207547625312,807.2237595550563,1123.0772462322113
1533222742.685,795.6091235854968,1103.2487236643417,866.8174770065198,837.1922518425163,953.8434070262039
1533222742.689,809.2667789180989,1101.0653308086255,906.0122185948566,829.7010877010329,956.9248542771622
1533222742.6929998,778.5353061279709,1081.4058467758043,880.0198362303921,827.8254198745171,926.1544924644227
1533222742.697,751.2199954627667,1074.851194042968,765.7368349845923,818.4624236280446,898.4592763745209
1533222742.701,730.7300158803171,1063.9252814330114,768.2125413862528,775.3834351626072,966.1565929737961
1533222742.705,725.6075209847047,1042.082404544474,857.7410134684184,760.4011068796406,904.615869348317
1533222742.708,781.9514682528946,1028.9730990788012,898.172763306595,782.8784350256171,538.4655779026414
1533222742.7120001,780.2416388986595,1033.3398847902336,884.5580679994429,792.2414312720897,492.3068844194717
1533222742.716,718.7786933184036,1015.8637936131285,773.1631092385836,781.0027671991013,716.9248542771622
1533222742.72,715.3660277770264,1015.8637936131285,747.9962439916693,777.259102989123,766.1523919550491
1533222742.724,727.3173503389398,1031.1564919345174,867.2298130897998,794.1132633770789,861.5386231161057
1533222742.728,756.3424903583791,1039.8945375230699,929.5288945576606,807.2237595550563,799.9978994906264
1533222742.732,747.8038333378429,1048.6325831116224,908.4870800455268,801.6044275185621,926.1544924644227
1533222742.736,705.1210379858015,1070.4799341658477,820.1964611641916,805.3519274500671,929.2296381872604
1533222742.74,686.340887757587,1085.7726324872367,790.9037002315066,812.8430915915504,618.4634773932679
1533222742.744,703.4147052151128,1074.851194042968,870.9433726922906,803.480095345078,769.2338392060075
1533222742.7470002,746.0975005671543,1079.2179797544002,923.3396285535093,810.9712594865613,572.3110854382188
1533222742.7510002,800.7316184811092,1092.327285220073,947.6818216338636,844.6834159839996,803.0793467415848
1533222742.755,778.5353061279709,1094.5106780757892,834.2243375056142,857.793912161977,1190.768261303366
1533222742.7589998,742.6813384422305,1098.8819379529093,777.2890049243543,824.0817556645387,1046.1544924644227
1533222742.7629998,785.364133794272,1107.619983541462,855.2653070667578,807.2237595550563,716.9248542771622
1533222742.7670002,853.6594036243755,1133.8341203071195,880.432172313672,831.5729198060221,476.92485427716224
1533222742.7710001,870.7297244983548,1133.8341203071195,905.1867014773063,831.5729198060221,470.76826130336605
1533222742.775,809.2667789180989,1127.2839417399712,880.0198362303921,825.953587769528,778.4592763745209
1533222742.779,752.9263282334554,1129.4673345956871,811.9446697926502,812.8430915915504,1267.6910150711547
1533222742.783,768.2903163367461,1122.9126818628508,871.7680448588505,809.0955916600454,1003.0772462322113
1533222742.786,819.5117687093237,1129.4673345956871,906.4245546781366,831.5729198060221,643.0772462322113
1533222742.79,816.0956065844,1140.3887730399558,905.1867014773063,837.1922518425163,827.6931155805282
1533222742.794,787.0739631485071,1140.3887730399558,914.2631650154078,835.3165840160004,796.9227537677887
1533222742.7979999,766.5839835660574,1127.2839417399712,818.1339357968014,829.7010877010329,615.38833167043
1533222742.802,783.6578010235834,1144.7600329170762,856.915496350868,831.5729198060221,430.7724623221131
1533222742.806,867.3170589569776,1155.6814713613448,912.2006396480176,870.9044083399546,643.0772462322113
1533222742.81,906.5836921840953,1149.1268186285083,907.6624078789669,876.5237403764487,870.7703618127396
1533222742.814,886.0972091851921,1151.3146856499125,840.0004224754953,854.046412230472,686.1544924644227
1533222742.8179998,846.8270793745279,1146.9434257727924,790.9037002315066,825.953587769528,726.1565929737961
1533222742.822,841.708081062462,1162.2361240941812,868.05533020735,803.480095345078,849.2317386966339
1533222742.826,887.8035419558807,1181.9000822926903,884.9704040827228,824.0817556645387,606.1565929737961
1533222742.829,909.999854309019,1175.345429559854,927.0531881560004,831.5729198060221,830.7682613033661
1533222742.833,911.7061870797077,1162.2361240941812,858.5656856349783,833.4447519110113,1006.1523919550491
1533222742.8370001,862.1945640613652,1142.572165895672,751.2966225598898,799.732595413573,744.6137688389434
1533222742.841,826.3405963756247,1160.052731238465,839.174905357945,784.7502671306063,1089.231738696634
1533222742.845,884.3908764145035,1162.2361240941812,865.1672877224096,820.3342557330337,1227.6952160899018
1533222742.849,939.0249943284582,1160.052731238465,877.9564659120116,835.3165840160004,799.9978994906264
1533222742.853,909.999854309019,1184.0834751484065,884.5580679994429,852.1745801254829,778.4592763745209
1533222742.857,877.5585521646559,1195.0049135926752,778.5268581251846,872.7762404449437,1027.6910150711547
1533222742.861,880.9747142895797,1186.2668680041227,758.7228968138811,885.8867366229211,861.5386231161057
1533222742.865,915.1223492046314,1181.9000822926903,863.9294345215793,906.488396942382,956.9248542771622
1533222742.8679998,968.0466377643511,1184.0834751484065,910.9627864471873,936.4568892298419,1132.3089849288453
1533222742.8720002,966.3403049936625,1201.5595663255115,878.3696469462818,940.2005534398203,1021.5407236254791
1533222742.8760002,925.3638424123096,1212.4810047697802,781.8272366934051,932.709389298337,1264.615869348317
1533222742.88,913.4125198503963,1212.4810047697802,757.0727075297708,919.5988931203594,799.9978994906264
1533222742.8839998,918.5350147460086,1205.9308262026318,880.0198362303921,902.7447327324036,876.9206532584152
1533222742.8879998,945.8538219947593,1195.0049135926752,945.206115232203,917.7270610153703,1458.4634773932678
1533222742.8920002,944.1439926405242,1179.7122152712861,858.1533495516983,934.5812214033261,818.4613768838943
1533222742.8960001,913.4125198503963,1177.5288224155702,768.2125413862528,910.235896873887,676.9227537677887
1533222742.9,903.171026642718,1190.6381278812428,769.8627306703631,880.267404586427,978.4634773932679
1533222742.904,906.5836921840953,1186.2668680041227,847.8390328127665,885.8867366229211,864.6137688389434
1533222742.907,935.6088322035345,1190.6381278812428,927.4655242392801,908.3602290473711,1126.152391955049
1533222742.911,942.4376598698356,1195.0049135926752,878.7819830295618,919.5988931203594,1012.3089849288452
1533222742.915,898.0485317471056,1203.7429591812277,778.9391942084646,921.4707252253486,569.2296381872604
1533222742.919,887.8035419558807,1197.1883064483914,770.6874028369231,923.3463930518644,683.0793467415848
1533222742.9229999,927.073671766545,1192.821520736959,850.314739214427,943.9480533713253,987.6952160899018
1533222742.927,956.0953152024379,1210.297611914064,899.8229525907052,964.549713690786,824.6179698576905
1533222742.931,940.7313270991468,1201.5595663255115,887.4461104843832,957.0585495493027,569.2296381872604
1533222742.935,892.9260368514931,1192.821520736959,816.8960825959712,949.5673854078194,821.5365226067321
1533222742.939,838.2919189375382,1205.9308262026318,748.8209161582292,930.8375571933477,907.6910150711548
1533222742.9429998,851.9495742701404,1192.821520736959,821.846650448302,934.5812214033261,492.3068844194717
1533222742.947,894.6323696221818,1170.9741696827336,890.7464890526037,912.1077289788761,633.8455075355773
1533222742.95,884.3908764145035,1179.7122152712861,890.7464890526037,904.6165648373928,1009.2338392060075
1533222742.954,851.9495742701404,1179.7122152712861,806.1685848227692,930.8375571933477,796.9227537677887
1533222742.958,845.1207466038393,1188.4502608598389,749.2340971924996,912.1077289788761,621.5386231161057
1533222742.9620001,836.5855861668496,1205.9308262026318,824.3223568499625,887.7585687279103,818.4613768838943
1533222742.966,853.6594036243755,1201.5595663255115,870.5301916580203,870.9044083399546,821.5365226067321
1533222742.97,867.3170589569776,1186.2668680041227,870.5301916580203,893.3779007644046,753.8455075355773
1533222742.974,812.6829410430227,1175.345429559854,811.5323337093702,915.8552289103811,701.5365226067321
1533222742.978,776.8289733572823,1175.345429559854,736.0317379686273,884.014904517932,695.3862311610566
1533222742.982,787.0739631485071,1188.4502608598389,798.3299744854979,895.2497328693937,799.9978994906264
1533222742.986,822.9279308342475,1179.7122152712861,870.5301916580203,915.8552289103811,1209.231738696634
1533222742.9889998,872.4395538525899,1173.1575625384498,865.9919598889695,928.961889366832,1215.3820301423095
1533222742.9929998,877.5585521646559,1184.0834751484065,816.4829015617009,958.9303816542919,1073.8434070262037
1533222742.9970002,790.4866286898844,1186.2668680041227,716.2277766573237,958.9303816542919,852.3068844194718
1533222743.0010002,775.1226405865937,1190.6381278812428,757.0727075297708,938.3287213348311,381.53862311610567
1533222743.005,848.536908728763,1177.5288224155702,869.7055194914603,936.4568892298419,720.0
1533222743.0089998,874.1458866232787,1166.6073839713015,880.844508396952,953.3110496177977,1175.3862311610565
1533222743.0129998,860.4882312906765,1181.9000822926903,816.0705654784209,947.6917175813036,756.9206532584152
1533222743.0170002,809.2667789180989,1190.6381278812428,740.1567887034078,957.0585495493027,784.615869348317
1533222743.0210001,785.364133794272,1181.9000822926903,772.3375921210334,949.5673854078194,960.0
1533222743.025,822.9279308342475,1170.9741696827336,858.9780217182582,930.8375571933477,953.8434070262039
1533222743.0279999,857.0720691657527,1184.0834751484065,885.3827401660028,943.9480533713253,821.5365226067321
1533222743.032,858.7784019364414,1199.3761734697953,860.2158749190885,964.549713690786,713.8497085543245
1533222743.036,790.4866286898844,1195.0049135926752,758.7228968138811,938.3287213348311,840.0
1533222743.04,740.9750056715419,1197.1883064483914,760.3730860979913,898.9972328008987,907.6910150711548
1533222743.044,793.9027908148081,1208.114219058348,864.3417706048593,898.9972328008987,1046.1544924644227
1533222743.0479999,826.3405963756247,1199.3761734697953,855.6776431500377,908.3602290473711,1058.4613768838944
1533222743.052,787.0739631485071,1164.4195169498973,846.1888435286563,906.488396942382,990.7703618127396
1533222743.056,761.4614886704451,1162.2361240941812,798.3299744854979,893.3779007644046,981.5386231161057
1533222743.06,751.2199954627667,1173.1575625384498,745.9328736732888,895.2497328693937,883.0772462322113
1533222743.064,788.7802959191957,1157.864864217061,844.950990327826,912.1077289788761,852.3068844194718
1533222743.0679998,828.0469291463135,1155.6814713613448,920.8647671028391,910.235896873887,836.9248542771622
1533222743.071,817.8054359386351,1164.4195169498973,885.7959212002731,891.5060686594153,898.4592763745209
1533222743.075,790.4866286898844,1170.9741696827336,788.4279938298461,882.1392366914162,1098.4634773932678
1533222743.079,780.2416388986595,1192.821520736959,757.4850436130508,867.1569084084496,846.1565929737961
1533222743.083,810.976608272334,1197.1883064483914,847.0135156952163,891.5060686594153,470.76826130336605
1533222743.0870001,870.7297244983548,1186.2668680041227,919.6269139020088,917.7270610153703,581.5365226067321
1533222743.091,874.1458866232787,1190.6381278812428,904.361184359756,930.8375571933477,892.3089849288452
1533222743.095,814.3892738137113,1188.4502608598389,809.46980834198,927.0900572618428,1039.9978994906264
1533222743.099,778.5353061279709,1170.9741696827336,759.5484139314314,887.7585687279103,756.9206532584152
1533222743.103,780.2416388986595,1192.821520736959,852.7896006650973,885.8867366229211,889.2338392060075
1533222743.107,833.1694240419258,1210.297611914064,908.4870800455268,938.3287213348311,1178.4613768838944
1533222743.11,880.9747142895797,1201.5595663255115,903.948848276476,945.8198854763144,1033.847608044951
1533222743.1139998,826.3405963756247,1201.5595663255115,843.3008010437158,908.3602290473711,1132.3089849288453
1533222743.1179998,746.0975005671543,1195.0049135926752,769.4495496360928,874.6480725499329,1043.079346741585
1533222743.1220002,766.5839835660574,1192.821520736959,845.775662494386,867.1569084084496,953.8434070262039
1533222743.1260002,831.4630912712372,1208.114219058348,907.6624078789669,908.3602290473711,1058.4613768838944
1533222743.13,851.9495742701404,1227.7737030911692,899.8229525907052,940.2005534398203,806.1544924644227
1533222743.1339998,795.6091235854968,1238.6996157011258,842.0629478428855,921.4707252253486,501.53862311610567
1533222743.1379998,742.6813384422305,1229.961570112573,774.8132985226938,895.2497328693937,624.6137688389434
1533222743.1420002,771.7064784616699,1205.9308262026318,850.314739214427,898.9972328008987,1003.0772462322113
1533222743.1460001,828.0469291463135,1192.821520736959,902.2986589923657,889.6342365544261,1058.4613768838944
1533222743.149,848.536908728763,1201.5595663255115,903.536512193196,900.8690649058879,833.8497085543245
1533222743.1529999,814.3892738137113,1203.7429591812277,865.1672877224096,910.235896873887,1009.2338392060075
1533222743.157,754.632661004144,1199.3761734697953,761.6109392988216,891.5060686594153,1101.5386231161056
1533222743.161,761.4614886704451,1203.7429591812277,816.8960825959712,895.2497328693937,916.9227537677887
1533222743.165,843.4144138331507,1195.0049135926752,909.312597163077,904.6165648373928,935.3862311610566
1533222743.169,870.7297244983548,1197.1883064483914,876.7194576621716,925.2182251568536,855.38833167043
1533222743.1729999,838.2919189375382,1205.9308262026318,863.9294345215793,938.3287213348311,892.3089849288452
1533222743.177,797.3154563561855,1205.9308262026318,810.2944805085399,943.9480533713253,603.0751457228378
1533222743.181,799.0252857104206,1197.1883064483914,804.5183955386589,934.5812214033261,387.69521608990175
1533222743.185,865.610726186289,1212.4810047697802,902.2986589923657,938.3287213348311,624.6137688389434
1533222743.189,891.2197040808045,1229.961570112573,940.6678834631523,953.3110496177977,692.3110854382188
1533222743.1920002,845.1207466038393,1225.590310235453,897.3480911400351,930.8375571933477,741.5386231161057
1533222743.196,788.7802959191957,1223.4069173797368,808.2319551411497,904.6165648373928,1141.5407236254791
1533222743.2,793.9027908148081,1229.961570112573,796.2674491181077,908.3602290473711,1276.9227537677887
1533222743.204,855.3657363950641,1238.6996157011258,877.9564659120116,917.7270610153703,1006.1523919550491
1533222743.208,882.6810470602683,1227.7737030911692,951.8077173196344,930.8375571933477,766.1523919550491
1533222743.2120001,872.4395538525899,1221.2235245240206,934.4794624099914,927.0900572618428,1024.615869348317
1533222743.216,862.1945640613652,1232.1449629682893,797.0921212846677,942.0723855448094,1015.384130651683
1533222743.22,850.2432414994518,1223.4069173797368,786.3654684624559,943.9480533713253,766.1523919550491
1533222743.224,833.1694240419258,1216.8522646469005,887.0337744011033,947.6917175813036,1116.920653258415
1533222743.228,887.8035419558807,1216.8522646469005,943.9682620313728,973.9127099372586,984.6137688389434
1533222743.231,925.3638424123096,1210.297611914064,931.5914199250508,983.2795419052577,1021.5407236254791
1533222743.235,862.1945640613652,1201.5595663255115,800.8056808871585,966.4215457957753,1070.768261303366
1533222743.2389998,829.7567585005486,1201.5595663255115,772.3375921210334,936.4568892298419,836.9248542771622
1533222743.2429998,843.4144138331507,1190.6381278812428,867.6421491730798,915.8552289103811,873.8455075355773
1533222743.2470002,882.6810470602683,1210.297611914064,938.6053580957621,919.5988931203594,870.7703618127396
1533222743.2510002,894.6323696221818,1208.114219058348,921.2771031861191,942.0723855448094,753.8455075355773
1533222743.255,882.6810470602683,1186.2668680041227,828.035071501463,934.5812214033261,658.4655779026414
1533222743.2589998,874.1458866232787,1205.9308262026318,785.9531323791759,898.9972328008987,572.3110854382188
1533222743.2629998,863.9008968320538,1205.9308262026318,873.0058980596808,921.4707252253486,467.6931155805283
1533222743.2670002,889.5098747265694,1210.297611914064,944.3814430656431,938.3287213348311,612.3068844194718
1533222743.27,899.7548645177942,1212.4810047697802,926.6408520727201,921.4707252253486,670.7724623221131
1533222743.274,882.6810470602683,1229.961570112573,842.4752839261655,930.8375571933477,821.5365226067321
1533222743.2779999,843.4144138331507,1208.114219058348,782.651908859965,906.488396942382,833.8497085543245
1533222743.282,850.2432414994518,1177.5288224155702,882.9078787153326,878.3955724814379,815.3862311610566
1533222743.286,921.9511768709326,1190.6381278812428,913.0253118145775,895.2497328693937,901.5407236254791
1533222743.29,944.1439926405242,1205.9308262026318,887.0337744011033,925.2182251568536,729.2317386966339
1533222743.294,920.2448441002438,1221.2235245240206,898.172763306595,943.9480533713253,803.0793467415848
1533222743.2979999,869.0233917276662,1225.590310235453,815.6582293951409,945.8198854763144,793.8476080449509
1533222743.302,858.7784019364414,1245.2542684339621,868.8800023739101,942.0723855448094,720.0
1533222743.306,959.5114773273614,1236.5162228454096,939.0176941790423,958.9303816542919,686.1544924644227
1533222743.31,968.0466377643511,1208.114219058348,885.7959212002731,968.2933779007644,843.0751457228378
1533222743.313,894.6323696221818,1232.1449629682893,887.8584465676632,968.2933779007644,1264.615869348317
1533222743.3170002,860.4882312906765,1238.6996157011258,854.8529709834778,966.4215457957753,1067.6931155805282
1533222743.321,857.0720691657527,1238.6996157011258,869.7055194914603,955.1828817227869,1021.5407236254791
1533222743.325,921.9511768709326,1234.3283558240055,936.9551688116519,958.9303816542919,1104.6137688389435
1533222743.329,913.4125198503963,1223.4069173797368,929.9412306409406,985.1513740102469,673.8476080449509
1533222743.333,858.7784019364414,1227.7737030911692,884.1457319161628,992.6425381517302,387.69521608990175
1533222743.3370001,839.9982517082269,1221.2235245240206,816.4829015617009,979.5320419737527,784.615869348317
1533222743.341,843.4144138331507,1216.8522646469005,844.1254732102757,979.5320419737527,1209.231738696634
1533222743.345,889.5098747265694,1236.5162228454096,909.7249332463571,985.1513740102469,766.1523919550491
1533222743.349,945.8538219947593,1247.4376612896783,967.8981190284472,979.5320419737527,698.4613768838943
1533222743.3520002,964.6339722229741,1253.9923140225146,922.1017753526793,987.023206115236,932.3110854382188
1533222743.356,921.9511768709326,1234.3283558240055,804.9315765729292,981.4038740787419,732.3068844194718
1533222743.36,877.5585521646559,1225.590310235453,828.8605886190132,962.6778815857969,710.7682613033661
1533222743.3639998,915.1223492046314,1245.2542684339621,925.4029988718898,958.9303816542919,803.0793467415848
1533222743.3679998,969.7564671185862,1234.3283558240055,978.2124357673792,968.2933779007644,590.7682613033661
1533222743.3720002,947.5601547654479,1240.8830085568418,922.1017753526793,977.6602098687636,424.61586934831695
1533222743.3760002,874.1458866232787,1247.4376612896783,820.6087972474717,940.2005534398203,489.23173869663395
1533222743.38,826.3405963756247,1221.2235245240206,827.622735418183,912.1077289788761,898.4592763745209
1533222743.3839998,882.6810470602683,1227.7737030911692,903.536512193196,915.8552289103811,1058.4613768838944
1533222743.3879998,939.0249943284582,1240.8830085568418,977.3869186498289,958.9303816542919,781.5407236254791
1533222743.391,911.7061870797077,1223.4069173797368,946.4439684330335,966.4215457957753,609.2317386966339
1533222743.395,848.536908728763,1216.8522646469005,841.6506117596056,927.0900572618428,701.5365226067321
1533222743.399,804.1442840224864,1229.961570112573,831.7486311039537,908.3602290473711,861.5386231161057
1533222743.4029999,810.976608272334,1227.7737030911692,908.0747439622468,927.0900572618428,895.384130651683
1533222743.407,863.9008968320538,1219.0356575026167,974.0865400816082,953.3110496177977,756.9206532584152
1533222743.411,858.7784019364414,1214.6688717911843,953.4579066037446,934.5812214033261,840.0
1533222743.415,826.3405963756247,1225.590310235453,865.9919598889695,923.3463930518644,1067.6931155805282
1533222743.419,800.7316184811092,1219.0356575026167,835.8745267897245,925.2182251568536,1163.079346741585
1533222743.4229999,781.9514682528946,1192.821520736959,903.536512193196,919.5988931203594,1279.9978994906264
1533222743.427,846.8270793745279,1190.6381278812428,964.1845594259566,934.5812214033261,1427.6931155805282
1533222743.431,887.8035419558807,1195.0049135926752,945.6192962664736,970.1690457272801,1061.5365226067322
1533222743.434,838.2919189375382,1205.9308262026318,879.6075001471121,975.7845420422477,987.6952160899018
1533222743.438,799.0252857104206,1192.821520736959,834.2243375056142,955.1828817227869,938.4613768838943
1533222743.4420002,819.5117687093237,1181.9000822926903,923.7528095877796,957.0585495493027,987.6952160899018
1533222743.446,870.7297244983548,1170.9741696827336,944.7937791489231,960.8022137592811,1095.3820301423095
1533222743.45,865.610726186289,1157.864864217061,932.4169370426011,962.6778815857969,738.4634773932679
1533222743.454,836.5855861668496,1151.3146856499125,915.0886821329581,934.5812214033261,726.1565929737961
1533222743.458,812.6829410430227,1129.4673345956871,825.9725461340727,908.3602290473711,799.9978994906264
1533222743.4620001,814.3892738137113,1127.2839417399712,902.2986589923657,921.4707252253486,753.8455075355773
1533222743.466,858.7784019364414,1111.9912434185821,967.8981190284472,936.4568892298419,1138.4592763745209
1533222743.47,891.2197040808045,1101.0653308086255,931.5914199250508,958.9303816542919,1360.0021005093736
1533222743.4729998,874.1458866232787,1109.803376397178,916.7388714170684,942.0723855448094,932.3110854382188
1533222743.4770002,826.3405963756247,1116.3580291300145,842.4752839261655,882.1392366914162,603.0751457228378
1533222743.481,875.8522193939673,1127.2839417399712,889.0962997684935,882.1392366914162,744.6137688389434
1533222743.485,933.9024994328458,1127.2839417399712,972.024014714218,917.7270610153703,926.1544924644227
1533222743.4889998,923.657509641621,1157.864864217061,981.5128143355995,925.2182251568536,1055.3862311610565
1533222743.4929998,894.6323696221818,1151.3146856499125,913.850828932128,891.5060686594153,1018.4592763745209
1533222743.4970002,828.0469291463135,1133.8341203071195,824.7346929332424,876.5237403764487,833.8497085543245
1533222743.5010002,833.1694240419258,1153.4980785056287,882.9078787153326,861.5375763719554,892.3089849288452
1533222743.505,892.9260368514931,1166.6073839713015,955.9336130054052,872.7762404449437,898.4592763745209
1533222743.5089998,908.2935215383304,1162.2361240941812,928.7033774401103,895.2497328693937,1003.0772462322113
1533222743.512,874.1458866232787,1153.4980785056287,908.4870800455268,887.7585687279103,1156.9227537677887
1533222743.516,828.0469291463135,1168.7907768270177,887.8584465676632,908.3602290473711,1055.3862311610565
1533222743.52,822.9279308342475,1177.5288224155702,871.7680448588505,884.014904517932,929.2296381872604
1533222743.524,850.2432414994518,1179.7122152712861,955.9336130054052,878.3955724814379,1153.847608044951
1533222743.5279999,875.8522193939673,1168.7907768270177,987.2888993054804,904.6165648373928,1123.0772462322113
1533222743.532,828.0469291463135,1166.6073839713015,923.3396285535093,904.6165648373928,812.3110854382188
1533222743.536,742.6813384422305,1168.7907768270177,838.762569274665,895.2497328693937,975.3820301423095
1533222743.54,740.9750056715419,1140.3887730399558,851.9649284985373,876.5237403764487,1015.384130651683
1533222743.544,804.1442840224864,1140.3887730399558,915.5010182162381,884.014904517932,975.3820301423095
1533222743.5479999,834.8757568126144,1151.3146856499125,979.8626250514892,893.3779007644046,824.6179698576905
1533222743.552,804.1442840224864,1157.864864217061,950.1575280355241,928.961889366832,787.6910150711548
1533222743.555,756.3424903583791,1146.9434257727924,842.4752839261655,947.6917175813036,858.4634773932679
1533222743.559,756.3424903583791,1138.2053801842399,836.2868628730045,919.5988931203594,864.6137688389434
1533222743.563,797.3154563561855,1151.3146856499125,902.2986589923657,915.8552289103811,720.0
1533222743.5670002,865.610726186289,1160.052731238465,975.7367293657187,925.2182251568536,760.0021005093736
1533222743.571,889.5098747265694,1155.6814713613448,948.9196748346941,930.8375571933477,981.5386231161057
1533222743.575,860.4882312906765,1166.6073839713015,844.1254732102757,923.3463930518644,864.6137688389434
1533222743.579,863.9008968320538,1197.1883064483914,826.798063251623,913.9795610838653,692.3110854382188
1533222743.583,942.4376598698356,1201.5595663255115,914.6755010986877,970.1690457272801,664.615869348317
1533222743.5870001,930.4863373079221,1181.9000822926903,966.660265827617,951.4392175128086,926.1544924644227
1533222743.591,862.1945640613652,1138.2053801842399,934.8917984932713,902.7447327324036,646.1523919550491
1533222743.5939999,804.1442840224864,1136.0219873285237,862.691581320749,876.5237403764487,646.1523919550491
1533222743.5979998,773.4128112323585,1149.1268186285083,799.9801637696081,874.6480725499329,556.9227537677887
1533222743.6020002,797.3154563561855,1125.096074718567,887.0337744011033,865.2850763034604,520.0021005093736
1533222743.606,822.9279308342475,1138.2053801842399,952.6323894861944,833.4447519110113,621.5386231161057
1533222743.61,824.6342636049361,1133.8341203071195,961.7096979752862,840.9359160524946,538.4655779026414
1533222743.6139998,793.9027908148081,1120.7292890071346,900.2361336249755,844.6834159839996,1095.3820301423095
1533222743.6179998,764.8776507953688,1122.9126818628508,804.5183955386589,835.3165840160004,1353.8455075355773
1533222743.6220002,790.4866286898844,1138.2053801842399,877.5441298287316,863.4132441984711,1030.7724623221131
1533222743.6260002,833.1694240419258,1155.6814713613448,929.5288945576606,876.5237403764487,953.8434070262039
1533222743.63,814.3892738137113,1153.4980785056287,908.0747439622468,869.0287405134387,732.3068844194718
1533222743.633,795.6091235854968,1155.6814713613448,877.1317937454515,878.3955724814379,538.4655779026414
1533222743.637,778.5353061279709,1144.7600329170762,802.0435340879886,859.6657442669663,627.6952160899018
1533222743.641,752.9263282334554,1144.7600329170762,875.068423427071,842.8115838790104,929.2296381872604
1533222743.645,776.8289733572823,1146.9434257727924,926.6408520727201,869.0287405134387,932.3110854382188
1533222743.649,817.8054359386351,1125.096074718567,891.5720061701543,887.7585687279103,686.1544924644227
1533222743.6529999,817.8054359386351,1131.6507274514033,903.1241761099161,880.267404586427,929.2296381872604
1533222743.657,797.3154563561855,1160.052731238465,827.622735418183,876.5237403764487,1033.847608044951
1533222743.661,795.6091235854968,1160.052731238465,847.4266967294866,876.5237403764487,1095.3820301423095
1533222743.665,843.4144138331507,1151.3146856499125,926.2276710384498,900.8690649058879,1141.5407236254791
1533222743.669,877.5585521646559,1173.1575625384498,880.0198362303921,908.3602290473711,624.6137688389434
1533222743.6729999,848.536908728763,1179.7122152712861,876.3062766279013,897.1254006959094,701.5365226067321
1533222743.676,787.0739631485071,1166.6073839713015,891.1588251358837,898.9972328008987,996.9206532584152
1533222743.68,787.0739631485071,1173.1575625384498,828.8605886190132,884.014904517932,873.8455075355773
1533222743.684,863.9008968320538,1168.7907768270177,861.4537281199188,872.7762404449437,535.384130651683
1533222743.688,933.9024994328458,1157.864864217061,947.2694855505837,889.6342365544261,464.61796985769047
1533222743.6920002,925.3638424123096,1184.0834751484065,917.1512075003483,910.235896873887,636.9269547865357
1533222743.696,853.6594036243755,1188.4502608598389,800.3933448038784,898.9972328008987,710.7682613033661
1533222743.7,848.536908728763,1177.5288224155702,798.7423105687778,870.9044083399546,584.6179698576905
1533222743.704,867.3170589569776,1177.5288224155702,892.8098593709843,878.3955724814379,852.3068844194718
1533222743.708,889.5098747265694,1153.4980785056287,982.3383314531497,900.8690649058879,1215.3820301423095
1533222743.7120001,909.999854309019,1149.1268186285083,957.1706212552451,910.235896873887,1215.3820301423095
1533222743.715,867.3170589569776,1168.7907768270177,835.4613457554542,891.5060686594153,1458.4634773932678
1533222743.7189999,805.8541133767217,1168.7907768270177,804.5183955386589,857.793912161977,1184.6179698576905
1533222743.7229998,792.192961460573,1175.345429559854,894.0468676208242,857.793912161977,707.6931155805282
1533222743.7270002,834.8757568126144,1177.5288224155702,960.8841808577359,884.014904517932,827.6931155805282
1533222743.731,845.1207466038393,1160.052731238465,934.0671263267113,902.7447327324036,636.9269547865357
1533222743.735,799.0252857104206,1162.2361240941812,824.3223568499625,897.1254006959094,507.6952160899018
1533222743.7389998,761.4614886704451,1166.6073839713015,819.3709440466414,878.3955724814379,1030.7724623221131
1533222743.7429998,799.0252857104206,1151.3146856499125,906.8368907614167,861.5375763719554,1030.7724623221131
1533222743.7470002,848.536908728763,1131.6507274514033,941.4934005807027,869.0287405134387,578.4613768838943
1533222743.7510002,828.0469291463135,1129.4673345956871,930.3535667242205,859.6657442669663,938.4613768838943
1533222743.754,752.9263282334554,1142.572165895672,845.775662494386,865.2850763034604,1104.6137688389435
1533222743.758,713.6596950063376,1146.9434257727924,809.88214442526,852.1745801254829,1006.1523919550491
1533222743.762,730.7300158803171,1131.6507274514033,877.1317937454515,814.7149236965396,932.3110854382188
1533222743.766,754.632661004144,1103.2487236643417,936.5419877773816,816.5905915230554,775.384130651683
1533222743.77,788.7802959191957,1107.619983541462,948.0941577171436,839.0640839475054,818.4613768838943
1533222743.774,749.5101661085316,1103.2487236643417,853.6151177826475,848.4270801939779,984.6137688389434
1533222743.7779999,694.8760481945767,1085.7726324872367,793.3794066331672,852.1745801254829,944.6179698576905
1533222743.782,715.3660277770264,1085.7726324872367,873.4182341429608,840.9359160524946,855.38833167043
1533222743.786,761.4614886704451,1079.2179797544002,896.1102379392048,857.793912161977,932.3110854382188
1533222743.79,773.4128112323585,1094.5106780757892,913.850828932128,880.267404586427,935.3862311610566
1533222743.794,740.9750056715419,1103.2487236643417,840.8250946420552,874.6480725499329,818.4613768838943
1533222743.7970002,691.4633826531993,1087.956025342953,755.8348543289405,874.6480725499329,836.9248542771622
1533222743.801,706.8273707564902,1081.4058467758043,853.6151177826475,893.3779007644046,747.6952160899018
1533222743.805,771.7064784616699,1090.1438923643568,920.0392499852891,891.5060686594153,756.9206532584152
1533222743.809,780.2416388986595,1101.0653308086255,876.7194576621716,865.2850763034604,886.1523919550491
1533222743.813,747.8038333378429,1111.9912434185821,864.3417706048593,874.6480725499329,692.3110854382188
1533222743.8170002,693.1697154238881,1122.9126818628508,839.174905357945,878.3955724814379,498.46347739326785
1533222743.821,679.5120600912859,1111.9912434185821,867.2298130897998,863.4132441984711,919.9978994906264
1533222743.825,742.6813384422305,1109.803376397178,888.2707826509431,857.793912161977,799.9978994906264
1533222743.829,802.4379512517978,1129.4673345956871,903.1241761099161,859.6657442669663,578.4613768838943
1533222743.833,776.8289733572823,1122.9126818628508,885.3827401660028,855.9182443354613,793.8476080449509
1533222743.836,740.9750056715419,1122.9126818628508,792.9662255988968,857.793912161977,876.9206532584152
1533222743.84,752.9263282334554,1140.3887730399558,810.2944805085399,863.4132441984711,772.3089849288452
1533222743.8439999,773.4128112323585,1157.864864217061,870.9433726922906,869.0287405134387,726.1565929737961
1533222743.8479998,778.5353061279709,1157.864864217061,941.9057366639826,872.7762404449437,738.4634773932679
1533222743.8520002,756.3424903583791,1153.4980785056287,922.1017753526793,885.8867366229211,704.6179698576905
1533222743.856,725.6075209847047,1166.6073839713015,821.4343143650219,869.0287405134387,833.8497085543245
1533222743.86,744.3911677964657,1157.864864217061,825.1470290165224,855.9182443354613,1000.0021005093736
1533222743.8639998,787.0739631485071,1155.6814713613448,893.6345315375445,867.1569084084496,830.7682613033661
1533222743.8679998,834.8757568126144,1162.2361240941812,956.3459490886852,861.5375763719554,913.8476080449509
1533222743.8720002,843.4144138331507,1179.7122152712861,943.5559259480929,861.5375763719554,1267.6910150711547
1533222743.875,800.7316184811092,1190.6381278812428,818.9586079633615,846.5552480889887,1206.1565929737963
1533222743.879,770.0001456909812,1184.0834751484065,813.1825229934805,842.8115838790104,867.6952160899018
1533222743.883,788.7802959191957,1205.9308262026318,917.1512075003483,854.046412230472,815.3862311610566
1533222743.887,851.9495742701404,1210.297611914064,968.7227911950072,869.0287405134387,1055.3862311610565
1533222743.891,848.536908728763,1205.9308262026318,922.1017753526793,880.267404586427,981.5386231161057
1533222743.895,824.6342636049361,1214.6688717911843,856.5031602675881,869.0287405134387,1024.615869348317
1533222743.899,834.8757568126144,1225.590310235453,846.1888435286563,857.793912161977,1276.9227537677887
1533222743.9029999,865.610726186289,1243.066401412558,898.9982804241453,880.267404586427,843.0751457228378
1533222743.907,906.5836921840953,1256.1757068782308,957.9961383727954,897.1254006959094,603.0751457228378
1533222743.911,899.7548645177942,1243.066401412558,955.5204319711348,897.1254006959094,984.6137688389434
1533222743.915,874.1458866232787,1234.3283558240055,853.6151177826475,902.7447327324036,907.6910150711548
1533222743.918,846.8270793745279,1227.7737030911692,804.106059455379,904.6165648373928,612.3068844194718
1533222743.9220002,869.0233917276662,1238.6996157011258,918.8013967844586,895.2497328693937,596.9248542771622
1533222743.926,911.7061870797077,1258.359099733947,935.3049795275416,891.5060686594153,726.1565929737961
1533222743.93,913.4125198503963,1258.359099733947,932.8292731258811,917.7270610153703,760.0021005093736
1533222743.934,846.8270793745279,1260.546966755351,928.2910413568303,936.4568892298419,876.9206532584152
1533222743.938,797.3154563561855,1247.4376612896783,790.9037002315066,930.8375571933477,566.1544924644227
1533222743.9420002,810.976608272334,1234.3283558240055,899.8229525907052,938.3287213348311,486.15659297379614
1533222743.946,843.4144138331507,1236.5162228454096,954.2825787703046,951.4392175128086,830.7682613033661
1533222743.95,862.1945640613652,1210.297611914064,882.4955426320527,940.2005534398203,855.38833167043
1533222743.954,824.6342636049361,1188.4502608598389,910.9627864471873,917.7270610153703,784.615869348317
1533222743.957,792.192961460573,1186.2668680041227,847.0135156952163,897.1254006959094,1092.3068844194718
1533222743.961,821.2181014800124,1186.2668680041227,852.7896006650973,893.3779007644046,1246.152391955049
1533222743.965,869.0233917276662,1197.1883064483914,913.4384928488478,923.3463930518644,901.5407236254791
1533222743.9689999,891.2197040808045,1201.5595663255115,963.7722233426764,930.8375571933477,843.0751457228378
1533222743.9729998,894.6323696221818,1223.4069173797368,889.0962997684935,932.709389298337,1073.8434070262037
1533222743.9770002,875.8522193939673,1236.5162228454096,787.6033216632861,940.2005534398203,861.5386231161057
1533222743.981,872.4395538525899,1212.4810047697802,851.551747464267,947.6917175813036,824.6179698576905
1533222743.985,920.2448441002438,1212.4810047697802,885.3827401660028,966.4215457957753,852.3068844194718
1533222743.9889998,968.0466377643511,1214.6688717911843,924.5774817543396,977.6602098687636,772.3089849288452
1533222743.9929998,942.4376598698356,1223.4069173797368,906.0122185948566,985.1513740102469,689.2296381872604
1533222743.996,867.3170589569776,1240.8830085568418,792.1415534323369,979.5320419737527,858.4634773932679
1533222744.0,846.8270793745279,1221.2235245240206,825.5602100507928,968.2933779007644,966.1565929737961
1533222744.004,898.0485317471056,1234.3283558240055,883.3202147986126,992.6425381517302,726.1565929737961
1533222744.008,920.2448441002438,1243.066401412558,910.137269329637,1011.3723663662018,932.3110854382188
1533222744.012,908.2935215383304,1245.2542684339621,883.3202147986126,1003.8812022247184,987.6952160899018
1533222744.016,877.5585521646559,1249.6210541453945,790.4913641482267,1000.1337022932136,861.5386231161057
1533222744.02,872.4395538525899,1227.7737030911692,800.8056808871585,988.8950382202252,1200.0
1533222744.024,925.3638424123096,1225.590310235453,870.9433726922906,1003.8812022247184,1304.6179698576905
1533222744.0279999,969.7564671185862,1232.1449629682893,919.2145778187288,1033.8458587906518,1110.7703618127396
1533222744.032,952.6826496610604,1229.961570112573,865.1672877224096,1007.6248664346969,1024.615869348317
1533222744.036,913.4125198503963,1236.5162228454096,793.7917427164472,970.1690457272801,1058.4613768838944
1533222744.039,894.6323696221818,1232.1449629682893,805.7562487394891,962.6778815857969,981.5386231161057
1533222744.043,909.999854309019,1214.6688717911843,864.3417706048593,972.0408778322694,763.0772462322113
1533222744.0470002,944.1439926405242,1210.297611914064,924.1651456710596,1007.6248664346969,1230.7703618127396
1533222744.051,959.5114773273614,1216.8522646469005,882.4955426320527,1024.4828625441794,1101.5386231161056
1533222744.055,921.9511768709326,1234.3283558240055,769.4495496360928,1005.7530343297077,843.0751457228378
1533222744.059,875.8522193939673,1240.8830085568418,743.8703483058986,985.1513740102469,803.0793467415848
1533222744.063,884.3908764145035,1229.961570112573,832.5733032705137,970.1690457272801,593.8497085543245
1533222744.0670002,952.6826496610604,1247.4376612896783,900.6484697082556,968.2933779007644,732.3068844194718
1533222744.071,968.0466377643511,1275.83966507674,888.2707826509431,972.0408778322694,763.0772462322113
1533222744.075,909.999854309019,1275.83966507674,765.3244989013124,949.5673854078194,649.2338392060075
1533222744.0779998,877.5585521646559,1258.359099733947,706.325796001672,917.7270610153703,707.6931155805282
1533222744.082,872.4395538525899,1245.2542684339621,818.1339357968014,917.7270610153703,833.8497085543245
1533222744.086,909.999854309019,1251.8089211667984,875.068423427071,925.2182251568536,956.9248542771622
1533222744.09,918.5350147460086,1249.6210541453945,858.1533495516983,919.5988931203594,1067.6931155805282
1533222744.0939999,884.3908764145035,1243.066401412558,788.4279938298461,910.235896873887,1000.0021005093736
1533222744.0979998,833.1694240419258,1234.3283558240055,731.4935061995766,887.7585687279103,873.8455075355773
1533222744.1020002,848.536908728763,1249.6210541453945,812.7701869102004,885.8867366229211,886.1523919550491
1533222744.106,920.2448441002438,1260.546966755351,845.775662494386,917.7270610153703,621.5386231161057
1533222744.11,939.0249943284582,1236.5162228454096,868.4676662906301,947.6917175813036,624.6137688389434
1533222744.1139998,906.5836921840953,1214.6688717911843,830.0984418198435,970.1690457272801,1009.2338392060075
1533222744.117,869.0233917276662,1229.961570112573,725.3042401954252,951.4392175128086,1156.9227537677887
1533222744.121,848.536908728763,1223.4069173797368,762.0232753821016,930.8375571933477,901.5407236254791
1533222744.125,880.9747142895797,1208.114219058348,818.1339357968014,957.0585495493027,686.1544924644227
1533222744.129,921.9511768709326,1216.8522646469005,798.7423105687778,955.1828817227869,1230.7703618127396
1533222744.133,899.7548645177942,1229.961570112573,794.2040787997271,949.5673854078194,1101.5386231161056
1533222744.137,863.9008968320538,1227.7737030911692,802.8682062545487,957.0585495493027,815.3862311610566
1533222744.141,882.6810470602683,1221.2235245240206,808.2319551411497,958.9303816542919,1153.847608044951
1533222744.145,950.9763168903717,1225.590310235453,818.5462718800815,972.0408778322694,818.4613768838943
1533222744.149,966.3403049936625,1212.4810047697802,847.0135156952163,992.6425381517302,649.2338392060075
1533222744.1529999,916.8286819753199,1223.4069173797368,823.0845036491322,985.1513740102469,732.3068844194718
1533222744.157,872.4395538525899,1236.5162228454096,719.5281552255442,960.8022137592811,655.384130651683
1533222744.16,863.9008968320538,1210.297611914064,767.3870242687026,936.4568892298419,664.615869348317
1533222744.164,887.8035419558807,1190.6381278812428,827.622735418183,932.709389298337,849.2317386966339
1533222744.168,898.0485317471056,1197.1883064483914,840.4127585587753,940.2005534398203,941.5365226067321
1533222744.1720002,850.2432414994518,1181.9000822926903,805.7562487394891,921.4707252253486,935.3862311610566
1533222744.176,778.5353061279709,1168.7907768270177,718.2911469757042,902.7447327324036,956.9248542771622
1533222744.18,764.8776507953688,1173.1575625384498,763.2611285829319,889.6342365544261,732.3068844194718
1533222744.184,826.3405963756247,1179.7122152712861,823.0845036491322,898.9972328008987,707.6931155805282
1533222744.188,851.9495742701404,1155.6814713613448,828.4482525357332,908.3602290473711,443.07934674158486
1533222744.1920002,841.708081062462,1142.572165895672,832.1609671872337,898.9972328008987,621.5386231161057
1533222744.196,819.5117687093237,1162.2361240941812,729.430135881196,897.1254006959094,741.5386231161057
1533222744.199,805.8541133767217,1170.9741696827336,731.9058422828565,891.5060686594153,412.30898492884523
1533222744.2029998,872.4395538525899,1166.6073839713015,823.4968397324122,893.3779007644046,600.0
1533222744.207,908.2935215383304,1146.9434257727924,854.0274538659276,885.8867366229211,658.4655779026414
1533222744.211,860.4882312906765,1122.9126818628508,850.314739214427,880.267404586427,778.4592763745209
1533222744.215,800.7316184811092,1098.8819379529093,726.1297573129755,872.7762404449437,883.0772462322113
1533222744.2189999,781.9514682528946,1107.619983541462,693.1234367777996,859.6657442669663,981.5386231161057
1533222744.2229998,816.0956065844,1122.9126818628508,811.1199976260901,867.1569084084496,1135.384130651683
1533222744.2270002,860.4882312906765,1133.8341203071195,882.9078787153326,880.267404586427,1092.3068844194718
1533222744.231,863.9008968320538,1138.2053801842399,844.538654244546,880.267404586427,889.2338392060075
1533222744.235,836.5855861668496,1127.2839417399712,742.6324951050683,865.2850763034604,806.1544924644227
1533222744.238,802.4379512517978,1125.096074718567,722.829378744755,852.1745801254829,809.2296381872604
1533222744.242,788.7802959191957,1111.9912434185821,821.021978281742,857.793912161977,981.5386231161057
1533222744.246,828.0469291463135,1094.5106780757892,877.5441298287316,872.7762404449437,1316.9248542771622
1533222744.25,829.7567585005486,1096.6985450971933,856.0908241843081,897.1254006959094,1086.1565929737963
1533222744.254,788.7802959191957,1103.2487236643417,769.8627306703631,882.1392366914162,781.5407236254791
1533222744.258,773.4128112323585,1109.803376397178,707.9768302367725,865.2850763034604,870.7703618127396
1533222744.262,780.2416388986595,1103.2487236643417,772.3375921210334,850.3027480204937,953.8434070262039
1533222744.266,809.2667789180989,1105.4365906857458,818.9586079633615,801.6044275185621,916.9227537677887
1533222744.27,824.6342636049361,1083.5892396315205,842.8876200094454,794.1132633770789,1015.384130651683
1533222744.274,795.6091235854968,1079.2179797544002,764.911317867042,809.0955916600454,772.3089849288452
1533222744.2779999,758.0488231290677,1118.5414219857305,698.0748495811207,799.732595413573,400.0021005093735
1533222744.2810001,768.2903163367461,1098.8819379529093,814.8327122775906,794.1132633770789,538.4655779026414
1533222744.285,853.6594036243755,1087.956025342953,858.9780217182582,833.4447519110113,843.0751457228378
1533222744.289,874.1458866232787,1092.327285220073,844.538654244546,846.5552480889887,812.3110854382188
1533222744.293,821.2181014800124,1087.956025342953,831.3362950206738,850.3027480204937,766.1523919550491
1533222744.2970002,793.9027908148081,1096.6985450971933,735.206220851077,865.2850763034604,926.1544924644227
1533222744.301,810.976608272334,1079.2179797544002,787.1909855800062,867.1569084084496,778.4592763745209
1533222744.305,857.0720691657527,1066.1131484544155,868.8800023739101,912.1077289788761,824.6179698576905
1533222744.309,882.6810470602683,1083.5892396315205,871.7680448588505,925.2182251568536,686.1544924644227
1533222744.313,851.9495742701404,1090.1438923643568,833.398820388064,889.6342365544261,716.9248542771622
1533222744.3170002,812.6829410430227,1087.956025342953,747.170726874119,882.1392366914162,1203.0751457228378
1533222744.32,783.6578010235834,1072.6633270215639,764.911317867042,891.5060686594153,935.3862311610566
1533222744.324,802.4379512517978,1020.2350534902487,863.9294345215793,885.8867366229211,803.0793467415848
1533222744.3279998,833.1694240419258,1007.125748024576,901.0608057915355,884.014904517932,990.7703618127396
1533222744.332,805.8541133767217,1004.9423551688598,847.4266967294866,902.7447327324036,1006.1523919550491
1533222744.336,776.8289733572823,998.3877024360235,733.5560315669668,880.267404586427,766.1523919550491
1533222744.34,781.9514682528946,1007.125748024576,766.5615071511523,869.0287405134387,606.1565929737961
1533222744.3439999,817.8054359386351,1002.7544881474557,869.7055194914603,895.2497328693937,689.2296381872604
1533222744.3479998,855.3657363950641,1024.601839201681,917.1512075003483,912.1077289788761,947.6931155805282
1533222744.3520002,846.8270793745279,1053.0038429887427,857.327832434148,927.0900572618428,1036.9227537677887
1533222744.356,826.3405963756247,1039.8945375230699,760.3730860979913,912.1077289788761,744.6137688389434
1533222744.359,879.268381518891,1053.0038429887427,788.0156577465661,898.9972328008987,938.4613768838943
1533222744.363,949.2664875361365,1063.9252814330114,868.4676662906301,917.7270610153703,904.615869348317
1533222744.367,986.8267879925656,1055.1872358444589,922.1017753526793,917.7270610153703,630.7703618127396
1533222744.371,949.2664875361365,1059.558495721579,888.2707826509431,895.2497328693937,750.7703618127396
1533222744.375,898.0485317471056,1061.7418885772952,779.3515302917446,904.6165648373928,1046.1544924644227
1533222744.379,875.8522193939673,1066.1131484544155,774.4009624394139,913.9795610838653,846.1565929737961
1533222744.383,898.0485317471056,1074.851194042968,858.9780217182582,900.8690649058879,489.23173869663395
1533222744.387,961.2178100980502,1085.7726324872367,929.5288945576606,912.1077289788761,538.4655779026414
1533222744.391,974.8789620141986,1087.956025342953,908.0747439622468,934.5812214033261,870.7703618127396
1533222744.395,923.657509641621,1101.0653308086255,802.4558701712687,908.3602290473711,1252.3089849288453
1533222744.3979998,898.0485317471056,1092.327285220073,765.7368349845923,902.7447327324036,1006.1523919550491
1533222744.4020002,915.1223492046314,1090.1438923643568,859.3912027525286,906.488396942382,769.2338392060075
1533222744.4060001,933.9024994328458,1092.327285220073,932.4169370426011,900.8690649058879,738.4634773932679
1533222744.41,918.5350147460086,1081.4058467758043,905.1867014773063,923.3463930518644,698.4613768838943
1533222744.414,869.0233917276662,1103.2487236643417,795.4419320005574,927.0900572618428,723.0751457228378
1533222744.418,821.2181014800124,1118.5414219857305,763.2611285829319,895.2497328693937,470.76826130336605
1533222744.4220002,860.4882312906765,1116.3580291300145,858.5656856349783,878.3955724814379,753.8455075355773
1533222744.426,925.3638424123096,1142.572165895672,901.4731418748155,906.488396942382,833.8497085543245
1533222744.43,908.2935215383304,1131.6507274514033,913.0253118145775,928.961889366832,944.6179698576905
1533222744.434,858.7784019364414,1127.2839417399712,808.6442912244297,910.235896873887,1196.9248542771622
1533222744.438,819.5117687093237,1125.096074718567,740.5699697376781,897.1254006959094,923.0793467415848
1533222744.441,836.5855861668496,1125.096074718567,856.0908241843081,910.235896873887,1080.0
1533222744.445,887.8035419558807,1142.572165895672,869.7055194914603,928.961889366832,969.2317386966339
1533222744.449,925.3638424123096,1127.2839417399712,840.0004224754953,949.5673854078194,701.5365226067321
1533222744.4529998,911.7061870797077,1114.1746362742983,854.8529709834778,943.9480533713253,1012.3089849288452
1533222744.457,865.610726186289,1116.3580291300145,790.9037002315066,923.3463930518644,929.2296381872604
1533222744.461,882.6810470602683,1127.2839417399712,839.5872414412249,932.709389298337,923.0793467415848
1533222744.465,940.7313270991468,1140.3887730399558,903.536512193196,955.1828817227869,1353.8455075355773
1533222744.4689999,973.1691326599635,1140.3887730399558,885.3827401660028,962.6778815857969,1203.0751457228378
1533222744.4729998,954.388982431749,1146.9434257727924,835.8745267897245,968.2933779007644,923.0793467415848
1533222744.4770002,921.9511768709326,1168.7907768270177,757.4850436130508,962.6778815857969,910.7724623221131
1533222744.48,911.7061870797077,1166.6073839713015,796.2674491181077,947.6917175813036,744.6137688389434
1533222744.484,949.2664875361365,1149.1268186285083,890.3341529693238,953.3110496177977,830.7682613033661
1533222744.488,971.4627998892748,1151.3146856499125,921.2771031861191,966.4215457957753,1055.3862311610565
1533222744.492,945.8538219947593,1151.3146856499125,854.0274538659276,970.1690457272801,796.9227537677887
1533222744.496,899.7548645177942,1142.572165895672,760.3730860979913,951.4392175128086,649.2338392060075
1533222744.5,884.3908764145035,1149.1268186285083,809.0566273077096,947.6917175813036,1018.4592763745209
1533222744.504,933.9024994328458,1155.6814713613448,890.7464890526037,958.9303816542919,1132.3089849288453
1533222744.508,990.2429501174894,1160.052731238465,923.3396285535093,972.0408778322694,1132.3089849288453
1533222744.512,983.4141224511883,1157.864864217061,876.7194576621716,988.8950382202252,901.5407236254791
1533222744.516,937.3151649742231,1164.4195169498973,776.4634878068041,966.4215457957753,692.3110854382188
1533222744.519,921.9511768709326,1175.345429559854,790.0781831139564,955.1828817227869,698.4613768838943
1533222744.5229998,978.2916275555759,1181.9000822926903,892.396678336714,1000.1337022932136,790.7724623221131
1533222744.5270002,1029.5130799281535,1186.2668680041227,943.1435898648128,1018.8635305076851,812.3110854382188
1533222744.5310001,1015.8519280120049,1190.6381278812428,907.6624078789669,1011.3723663662018,892.3089849288452
1533222744.535,981.7077896804997,1223.4069173797368,793.7917427164472,1009.5005342612127,664.615869348317
1533222744.539,944.1439926405242,1221.2235245240206,812.3578508269204,994.5143702567194,750.7703618127396
1533222744.543,957.8051445566728,1208.114219058348,896.1102379392048,1005.7530343297077,1064.6179698576905
1533222744.5470002,1010.7294331163926,1221.2235245240206,926.6408520727201,1013.244198471191,769.2338392060075
1533222744.551,1019.2680901369287,1216.8522646469005,917.9767246178985,996.3900380832351,489.23173869663395
1533222744.555,968.0466377643511,1225.590310235453,827.622735418183,973.9127099372586,876.9206532584152
1533222744.559,947.5601547654479,1227.7737030911692,797.0921212846677,958.9303816542919,1326.1565929737963
1533222744.562,981.7077896804997,1245.2542684339621,878.3696469462818,966.4215457957753,981.5386231161057
1533222744.566,1014.1455952413163,1258.359099733947,896.9349101057647,968.2933779007644,836.9248542771622
1533222744.57,1036.3419075944546,1247.4376612896783,908.900261079797,1000.1337022932136,969.2317386966339
1533222744.574,997.0717777837904,1256.1757068782308,873.0058980596808,1013.244198471191,735.38833167043
1533222744.5779998,954.388982431749,1258.359099733947,795.8542680838374,1000.1337022932136,846.1565929737961
1533222744.582,966.3403049936625,1264.9137524667833,889.0962997684935,994.5143702567194,1356.920653258415
1533222744.586,998.7781105544791,1269.2850123439036,919.2145778187288,987.023206115236,1193.8434070262037
1533222744.59,1000.4879399087142,1260.546966755351,838.762569274665,994.5143702567194,670.7724623221131
1533222744.5939999,979.9979603262645,1282.3898436438883,855.2653070667578,1000.1337022932136,618.4634773932679
1533222744.5979998,966.3403049936625,1269.2850123439036,871.7680448588505,1005.7530343297077,1089.231738696634
1533222744.601,969.7564671185862,1245.2542684339621,891.1588251358837,1013.244198471191,1104.6137688389435
1533222744.605,1015.8519280120049,1249.6210541453945,916.7388714170684,1028.2265267541577,923.0793467415848
1533222744.609,1031.2194126988422,1253.9923140225146,928.2910413568303,1043.212690758651,870.7703618127396
1533222744.613,968.0466377643511,1251.8089211667984,861.0413920366389,1028.2265267541577,704.6179698576905
1533222744.617,937.3151649742231,1245.2542684339621,791.729217349057,1013.244198471191,1107.6952160899018
1533222744.621,927.073671766545,1240.8830085568418,853.6151177826475,988.8950382202252,996.9206532584152
1533222744.625,949.2664875361365,1238.6996157011258,894.0468676208242,988.8950382202252,784.615869348317
1533222744.629,988.5366173468008,1249.6210541453945,900.6484697082556,1000.1337022932136,587.6931155805282
1533222744.633,956.0953152024379,1267.1016194881875,880.0198362303921,996.3900380832351,427.69101507115477
1533222744.637,915.1223492046314,1262.7303596110671,789.6658470306763,983.2795419052577,833.8497085543245
1533222744.64,923.657509641621,1247.4376612896783,794.6172598339974,966.4215457957753,658.4655779026414
1533222744.644,954.388982431749,1236.5162228454096,893.6345315375445,968.2933779007644,747.6952160899018
1533222744.6479998,961.2178100980502,1245.2542684339621,935.7173156108216,1003.8812022247184,689.2296381872604
1533222744.6520002,940.7313270991468,1253.9923140225146,890.3341529693238,1024.4828625441794,606.1565929737961
1533222744.6560001,906.5836921840953,1232.1449629682893,806.1685848227692,1005.7530343297077,972.3068844194718
1533222744.66,913.4125198503963,1221.2235245240206,828.4482525357332,983.2795419052577,1113.8455075355773
1533222744.664,947.5601547654479,1223.4069173797368,896.1102379392048,970.1690457272801,870.7703618127396
1533222744.668,957.8051445566728,1223.4069173797368,949.7443470012541,955.1828817227869,852.3068844194718
1533222744.6720002,942.4376598698356,1208.114219058348,905.5990375605862,938.3287213348311,1024.615869348317
1533222744.676,898.0485317471056,1203.7429591812277,799.5678276863282,919.5988931203594,1249.2338392060074
1533222744.68,882.6810470602683,1212.4810047697802,800.8056808871585,906.488396942382,1006.1523919550491
1533222744.6829998,916.8286819753199,1195.0049135926752,901.0608057915355,936.4568892298419,907.6910150711548
1533222744.687,956.0953152024379,1197.1883064483914,946.0316323497534,945.8198854763144,1243.0772462322113
1533222744.691,949.2664875361365,1212.4810047697802,875.068423427071,927.0900572618428,1092.3068844194718
1533222744.695,898.0485317471056,1203.7429591812277,778.5268581251846,923.3463930518644,766.1523919550491
1533222744.699,860.4882312906765,1221.2235245240206,806.9941019403194,908.3602290473711,821.5365226067321
1533222744.7029998,892.9260368514931,1227.7737030911692,877.9564659120116,904.6165648373928,1153.847608044951
1533222744.707,935.6088322035345,1216.8522646469005,936.9551688116519,928.961889366832,1172.3047839100982
1533222744.711,950.9763168903717,1212.4810047697802,900.6484697082556,934.5812214033261,1150.7661607939926
1533222744.715,916.8286819753199,1208.114219058348,772.7507731553036,932.709389298337,913.8476080449509
1533222744.7189999,875.8522193939673,1208.114219058348,774.4009624394139,938.3287213348311,803.0793467415848
1533222744.7220001,891.2197040808045,1214.6688717911843,844.538654244546,934.5812214033261,1006.1523919550491
1533222744.726,913.4125198503963,1216.8522646469005,896.1102379392048,936.4568892298419,873.8455075355773
1533222744.73,925.3638424123096,1201.5595663255115,908.0747439622468,942.0723855448094,1138.4592763745209
1533222744.734,884.3908764145035,1210.297611914064,784.3029430950656,936.4568892298419,1212.3068844194718
1533222744.738,855.3657363950641,1221.2235245240206,731.4935061995766,928.961889366832,821.5365226067321
1533222744.742,879.268381518891,1205.9308262026318,839.5872414412249,928.961889366832,698.4613768838943
1533222744.746,901.4611972884828,1205.9308262026318,868.05533020735,934.5812214033261,707.6931155805282
1533222744.75,887.8035419558807,1192.821520736959,861.0413920366389,930.8375571933477,707.6931155805282
1533222744.754,839.9982517082269,1188.4502608598389,828.8605886190132,906.488396942382,655.384130651683
1533222744.758,821.2181014800124,1210.297611914064,760.7862671322616,902.7447327324036,1058.4613768838944
1533222744.7610002,841.708081062462,1201.5595663255115,812.7701869102004,917.7270610153703,870.7703618127396
1533222744.765,896.342198976417,1195.0049135926752,856.0908241843081,932.709389298337,513.8455075355773
1533222744.769,925.3638424123096,1205.9308262026318,844.950990327826,932.709389298337,1015.384130651683
1533222744.7729998,872.4395538525899,1212.4810047697802,849.9015581801567,917.7270610153703,1132.3089849288453
1533222744.7770002,839.9982517082269,1199.3761734697953,780.1770474092949,887.7585687279103,1135.384130651683
1533222744.7810001,875.8522193939673,1197.1883064483914,773.9886263561339,889.6342365544261,1015.384130651683
1533222744.785,906.5836921840953,1199.3761734697953,819.7841250809117,919.5988931203594,396.92695478653576
1533222744.789,877.5585521646559,1197.1883064483914,884.1457319161628,891.5060686594153,369.2317386966339
1533222744.793,834.8757568126144,1210.297611914064,886.2082572835529,874.6480725499329,858.4634773932679
1533222744.7970002,810.976608272334,1214.6688717911843,749.2340971924996,900.8690649058879,883.0772462322113
1533222744.801,824.6342636049361,1199.3761734697953,791.3160363147866,917.7270610153703,1049.2296381872604
1533222744.804,865.610726186289,1179.7122152712861,844.950990327826,925.2182251568536,996.9206532584152
1533222744.8079998,901.4611972884828,1168.7907768270177,872.5935619764008,934.5812214033261,913.8476080449509
1533222744.812,899.7548645177942,1177.5288224155702,816.4829015617009,934.5812214033261,932.3110854382188
1533222744.816,875.8522193939673,1195.0049135926752,751.7089586431698,921.4707252253486,1018.4592763745209
1533222744.82,870.7297244983548,1199.3761734697953,797.505302318938,904.6165648373928,1658.4613768838944
1533222744.824,899.7548645177942,1201.5595663255115,805.7562487394891,917.7270610153703,1144.615869348317
1533222744.8279998,913.4125198503963,1201.5595663255115,832.1609671872337,934.5812214033261,840.0
1533222744.832,892.9260368514931,1190.6381278812428,826.798063251623,945.8198854763144,975.3820301423095
1533222744.836,869.0233917276662,1177.5288224155702,743.0448311883482,927.0900572618428,907.6910150711548
1533222744.84,860.4882312906765,1177.5288224155702,752.9468118440001,900.8690649058879,892.3089849288452
1533222744.843,887.8035419558807,1160.052731238465,818.1339357968014,925.2182251568536,815.3862311610566
1533222744.8470001,909.999854309019,1136.0219873285237,850.314739214427,938.3287213348311,753.8455075355773
1533222744.851,858.7784019364414,1136.0219873285237,846.6011796119362,912.1077289788761,889.2338392060075
1533222744.855,788.7802959191957,1131.6507274514033,720.7660084263745,893.3779007644046,1009.2338392060075
1533222744.859,746.0975005671543,1105.4365906857458,715.4031044907638,865.2850763034604,766.1523919550491
1533222744.863,732.4398452345522,1092.327285220073,799.5678276863282,827.8254198745171,827.6931155805282
1533222744.867,747.8038333378429,1074.851194042968,853.6151177826475,818.4624236280446,926.1544924644227
1533222744.871,749.5101661085316,1061.7418885772952,841.6506117596056,831.5729198060221,1021.5407236254791
1533222744.875,734.1461780052408,1090.1438923643568,690.6485753271294,822.206087838023,913.8476080449509
1533222744.879,711.9498656521025,1077.0345868986842,695.5991431794602,790.3695991671004,1080.0
1533222744.8820002,747.8038333378429,1070.4799341658477,770.275066753643,805.3519274500671,907.6910150711548
1533222744.8860002,800.7316184811092,1074.851194042968,866.4051409232399,816.5905915230554,633.8455075355773
1533222744.89,800.7316184811092,1063.9252814330114,872.5935619764008,816.5905915230554,907.6910150711548
1533222744.894,749.5101661085316,1083.5892396315205,727.3676105138057,818.4624236280446,1181.5365226067322
1533222744.8979998,722.1948554433274,1094.5106780757892,678.6840693040874,792.2414312720897,966.1565929737961
1533222744.9020002,781.9514682528946,1094.5106780757892,774.4009624394139,782.8784350256171,689.2296381872604
1533222744.9060001,836.5855861668496,1090.1438923643568,820.1964611641916,803.480095345078,679.9978994906264
1533222744.91,846.8270793745279,1096.6985450971933,837.1123799905548,825.953587769528,735.38833167043
1533222744.914,795.6091235854968,1098.8819379529093,756.6603714464908,814.7149236965396,941.5365226067321
1533222744.918,747.8038333378429,1092.327285220073,657.2299187086736,794.1132633770789,846.1565929737961
1533222744.9220002,785.364133794272,1096.6985450971933,736.4440740519073,809.0955916600454,704.6179698576905
1533222744.925,828.0469291463135,1105.4365906857458,827.210399334903,827.8254198745171,532.3089849288452
1533222744.929,851.9495742701404,1125.096074718567,838.762569274665,848.4270801939779,581.5365226067321
1533222744.9329998,821.2181014800124,1129.4673345956871,763.2611285829319,863.4132441984711,753.8455075355773
1533222744.937,792.192961460573,1118.5414219857305,693.1234367777996,878.3955724814379,975.3820301423095
1533222744.941,812.6829410430227,1131.6507274514033,761.1986032155415,910.235896873887,1095.3820301423095
1533222744.945,860.4882312906765,1151.3146856499125,814.8327122775906,936.4568892298419,633.8455075355773
1533222744.949,874.1458866232787,1151.3146856499125,788.8411748641164,938.3287213348311,667.6910150711548
1533222744.9529998,831.4630912712372,1170.9741696827336,821.846650448302,932.709389298337,1092.3068844194718
1533222744.957,799.0252857104206,1184.0834751484065,773.5754453218635,934.5812214033261,1304.6179698576905
1533222744.961,804.1442840224864,1166.6073839713015,755.0101821623806,936.4568892298419,1255.384130651683
1533222744.964,865.610726186289,1164.4195169498973,806.9941019403194,960.8022137592811,892.3089849288452
1533222744.968,928.7800045372334,1168.7907768270177,818.1339357968014,987.023206115236,704.6179698576905
1533222744.9720001,892.9260368514931,1164.4195169498973,808.6442912244297,970.1690457272801,781.5407236254791
1533222744.976,846.8270793745279,1190.6381278812428,735.206220851077,932.709389298337,993.8455075355773
1533222744.98,834.8757568126144,1181.9000822926903,747.170726874119,942.0723855448094,861.5386231161057
1533222744.984,870.7297244983548,1155.6814713613448,814.4203761943107,960.8022137592811,658.4655779026414
1533222744.988,908.2935215383304,1160.052731238465,857.7410134684184,953.3110496177977,849.2317386966339
1533222744.992,894.6323696221818,1164.4195169498973,837.9370521571147,945.8198854763144,1036.9227537677887
1533222744.996,838.2919189375382,1146.9434257727924,728.605463714636,940.2005534398203,1181.5365226067322
1533222745.0,804.1442840224864,1144.7600329170762,745.1082015067288,942.0723855448094,769.2338392060075
1533222745.0029998,826.3405963756247,1149.1268186285083,819.7841250809117,927.0900572618428,593.8497085543245
1533222745.0070002,870.7297244983548,1136.0219873285237,875.4816044613414,943.9480533713253,963.0751457228378
1533222745.0110002,872.4395538525899,1129.4673345956871,837.9370521571147,957.0585495493027,787.6910150711548
1533222745.015,809.2667789180989,1114.1746362742983,696.8369963802904,949.5673854078194,344.61796985769047
1533222745.019,758.0488231290677,1083.5892396315205,738.9197804535678,912.1077289788761,363.07514572283776
1533222745.0229998,795.6091235854968,1081.4058467758043,842.4752839261655,885.8867366229211,600.0
1533222745.0270002,841.708081062462,1114.1746362742983,910.9627864471873,921.4707252253486,630.7703618127396
1533222745.0310001,841.708081062462,1138.2053801842399,898.172763306595,923.3463930518644,760.0021005093736
1533222745.035,839.9982517082269,1142.572165895672,746.758390790839,925.2182251568536,661.5407236254791
1533222745.039,809.2667789180989,1140.3887730399558,741.394641904238,923.3463930518644,763.0772462322113
1533222745.043,838.2919189375382,1153.4980785056287,854.0274538659276,934.5812214033261,1080.0
1533222745.046,901.4611972884828,1157.864864217061,886.620593366833,970.1690457272801,775.384130651683
1533222745.05,892.9260368514931,1157.864864217061,877.1317937454515,966.4215457957753,575.3862311610566
1533222745.054,850.2432414994518,1164.4195169498973,777.2890049243543,938.3287213348311,692.3110854382188
1533222745.0579998,807.5604461474103,1153.4980785056287,727.7799465970858,913.9795610838653,679.9978994906264
1533222745.062,821.2181014800124,1146.9434257727924,793.7917427164472,908.3602290473711,566.1544924644227
1533222745.066,898.0485317471056,1166.6073839713015,893.2221954542642,921.4707252253486,627.6952160899018
1533222745.07,892.9260368514931,1184.0834751484065,906.8368907614167,919.5988931203594,1030.7724623221131
1533222745.074,792.192961460573,1160.052731238465,782.2395727766851,902.7447327324036,1138.4592763745209
1533222745.0779998,761.4614886704451,1160.052731238465,735.618556934357,900.8690649058879,846.1565929737961
1533222745.082,814.3892738137113,1177.5288224155702,849.9015581801567,925.2182251568536,738.4634773932679
1533222745.085,872.4395538525899,1160.052731238465,863.9294345215793,940.2005534398203,692.3110854382188
1533222745.089,892.9260368514931,1149.1268186285083,866.8174770065198,927.0900572618428,926.1544924644227
1533222745.093,870.7297244983548,1155.6814713613448,850.7270752977071,927.0900572618428,870.7703618127396
1533222745.0970001,834.8757568126144,1155.6814713613448,772.3375921210334,928.961889366832,396.92695478653576
1533222745.101,828.0469291463135,1142.572165895672,855.2653070667578,912.1077289788761,513.8455075355773
1533222745.105,870.7297244983548,1129.4673345956871,891.5720061701543,912.1077289788761,972.3068844194718
1533222745.109,908.2935215383304,1133.8341203071195,858.1533495516983,919.5988931203594,803.0793467415848
1533222745.113,882.6810470602683,1149.1268186285083,812.3578508269204,927.0900572618428,667.6910150711548
1533222745.117,863.9008968320538,1170.9741696827336,763.6734646662118,928.961889366832,812.3110854382188
1533222745.121,870.7297244983548,1151.3146856499125,823.9100207666825,919.5988931203594,876.9206532584152
1533222745.1239998,904.8773594134066,1136.0219873285237,865.1672877224096,932.709389298337,956.9248542771622
1533222745.1279998,932.1961666621575,1144.7600329170762,879.1943191128419,953.3110496177977,919.9978994906264
1533222745.1320002,889.5098747265694,1146.9434257727924,834.6366735888943,942.0723855448094,907.6910150711548
1533222745.1360002,858.7784019364414,1160.052731238465,751.7089586431698,930.8375571933477,1064.6179698576905
1533222745.14,875.8522193939673,1173.1575625384498,816.0705654784209,938.3287213348311,1187.6931155805282
1533222745.144,923.657509641621,1173.1575625384498,847.0135156952163,940.2005534398203,898.4592763745209
1533222745.1479998,940.7313270991468,1170.9741696827336,858.5656856349783,936.4568892298419,609.2317386966339
1533222745.1520002,913.4125198503963,1164.4195169498973,843.3008010437158,938.3287213348311,713.8497085543245
1533222745.1560001,884.3908764145035,1184.0834751484065,758.7228968138811,947.6917175813036,1061.5365226067322
1533222745.16,875.8522193939673,1203.7429591812277,790.4913641482267,942.0723855448094,1166.1544924644227
1533222745.164,916.8286819753199,1188.4502608598389,868.05533020735,936.4568892298419,1113.8455075355773
1533222745.167,944.1439926405242,1179.7122152712861,901.4731418748155,940.2005534398203,852.3068844194718
1533222745.171,908.2935215383304,1181.9000822926903,862.691581320749,928.961889366832,676.9227537677887
1533222745.175,879.268381518891,1205.9308262026318,766.1491710678723,930.8375571933477,883.0772462322113
1533222745.179,865.610726186289,1210.297611914064,771.9252560377533,913.9795610838653,809.2296381872604
1533222745.1829998,889.5098747265694,1199.3761734697953,859.3912027525286,927.0900572618428,701.5365226067321
1533222745.187,928.7800045372334,1221.2235245240206,919.2145778187288,957.0585495493027,526.1523919550491
1533222745.191,906.5836921840953,1216.8522646469005,918.3890607011786,934.5812214033261,689.2296381872604
1533222745.195,831.4630912712372,1199.3761734697953,803.6937233720989,919.5988931203594,1113.8455075355773
1533222745.199,810.976608272334,1199.3761734697953,748.4085800749493,923.3463930518644,916.9227537677887
1533222745.2029998,831.4630912712372,1205.9308262026318,845.775662494386,923.3463930518644,1104.6137688389435
1533222745.206,857.0720691657527,1208.114219058348,853.2027816993676,919.5988931203594,947.6931155805282
1533222745.21,896.342198976417,1201.5595663255115,851.139411380987,934.5812214033261,621.5386231161057
1533222745.214,863.9008968320538,1192.821520736959,855.2653070667578,930.8375571933477,953.8434070262039
1533222745.218,828.0469291463135,1199.3761734697953,794.2040787997271,912.1077289788761,1015.384130651683
1533222745.2220001,875.8522193939673,1203.7429591812277,873.8314151772311,942.0723855448094,987.6952160899018
1533222745.226,940.7313270991468,1205.9308262026318,871.7680448588505,970.1690457272801,1144.615869348317
1533222745.23,962.9276394522851,1216.8522646469005,874.2437512605111,958.9303816542919,1104.6137688389435
1533222745.234,939.0249943284582,1205.9308262026318,855.6776431500377,938.3287213348311,753.8455075355773
1533222745.238,908.2935215383304,1195.0049135926752,780.1770474092949,947.6917175813036,796.9227537677887
1533222745.242,930.4863373079221,1197.1883064483914,862.691581320749,949.5673854078194,1126.152391955049
1533222745.245,993.6591122424134,1201.5595663255115,925.4029988718898,962.6778815857969,1043.079346741585
1533222745.2489998,1022.680755678306,1203.7429591812277,903.948848276476,992.6425381517302,1113.8455075355773
1533222745.2529998,990.2429501174894,1190.6381278812428,821.4343143650219,990.770706046741,1350.7703618127396
1533222745.2570002,954.388982431749,1197.1883064483914,804.5183955386589,964.549713690786,1236.920653258415
1533222745.2610002,959.5114773273614,1203.7429591812277,855.2653070667578,962.6778815857969,1181.5365226067322
1533222745.265,998.7781105544791,1199.3761734697953,887.8584465676632,985.1513740102469,935.3862311610566
1533222745.269,1024.3905850325411,1203.7429591812277,958.8216554903457,1007.6248664346969,886.1523919550491
1533222745.2729998,959.5114773273614,1219.0356575026167,862.279245237469,990.770706046741,1033.847608044951
1533222745.2770002,921.9511768709326,1214.6688717911843,767.3870242687026,966.4215457957753,787.6910150711548
1533222745.2810001,956.0953152024379,1190.6381278812428,844.950990327826,962.6778815857969,504.61376883894343
1533222745.285,985.1204552218769,1214.6688717911843,892.8098593709843,958.9303816542919,458.46137688389433
1533222745.2879999,991.949282888178,1223.4069173797368,952.2200534029143,972.0408778322694,963.0751457228378
1533222745.292,969.7564671185862,1208.114219058348,873.8314151772311,962.6778815857969,1080.0
1533222745.296,923.657509641621,1227.7737030911692,746.758390790839,947.6917175813036,778.4592763745209
1533222745.3,909.999854309019,1245.2542684339621,834.2243375056142,949.5673854078194,581.5365226067321
1533222745.304,964.6339722229741,1234.3283558240055,927.8778603225601,958.9303816542919,747.6952160899018
1533222745.3079998,998.7781105544791,1216.8522646469005,965.0100765435067,966.4215457957753,910.7724623221131
1533222745.312,962.9276394522851,1192.821520736959,917.5635435836283,968.2933779007644,892.3089849288452
1533222745.316,923.657509641621,1175.345429559854,796.2674491181077,957.0585495493027,926.1544924644227
1533222745.32,880.9747142895797,1179.7122152712861,826.798063251623,942.0723855448094,870.7703618127396
1533222745.324,916.8286819753199,1175.345429559854,911.7874586137473,942.0723855448094,861.5386231161057
1533222745.3270001,969.7564671185862,1181.9000822926903,963.7722233426764,955.1828817227869,1172.3047839100982
1533222745.331,927.073671766545,1168.7907768270177,913.0253118145775,968.2933779007644,1033.847608044951
1533222745.335,889.5098747265694,1177.5288224155702,798.3299744854979,955.1828817227869,575.3862311610566
1533222745.339,877.5585521646559,1203.7429591812277,829.2729247022932,962.6778815857969,701.5365226067321
1533222745.343,916.8286819753199,1208.114219058348,872.1803809421306,990.770706046741,501.53862311610567
1533222745.3470001,976.5852947848873,1195.0049135926752,948.9196748346941,987.023206115236,606.1565929737961
1533222745.351,956.0953152024379,1192.821520736959,926.2276710384498,985.1513740102469,775.384130651683
1533222745.355,918.5350147460086,1210.297611914064,819.7841250809117,1007.6248664346969,904.615869348317
1533222745.359,911.7061870797077,1195.0049135926752,823.9100207666825,1005.7530343297077,883.0772462322113
1533222745.363,927.073671766545,1184.0834751484065,904.361184359756,1002.0055343982027,836.9248542771622
1533222745.3660002,969.7564671185862,1184.0834751484065,965.0100765435067,1007.6248664346969,950.7682613033661
1533222745.37,944.1439926405242,1203.7429591812277,921.689439269399,998.2618701882243,618.4634773932679
1533222745.3739998,851.9495742701404,1205.9308262026318,826.3848822173527,985.1513740102469,535.384130651683
1533222745.3779998,817.8054359386351,1168.7907768270177,806.1685848227692,968.2933779007644,643.0772462322113
1533222745.3820002,860.4882312906765,1166.6073839713015,891.984342253434,962.6778815857969,609.2317386966339
1533222745.3860002,906.5836921840953,1188.4502608598389,932.8292731258811,972.0408778322694,898.4592763745209
1533222745.39,915.1223492046314,1195.0049135926752,894.4600486550945,972.0408778322694,618.4634773932679
1533222745.394,891.2197040808045,1205.9308262026318,867.2298130897998,1000.1337022932136,575.3862311610566
1533222745.3979998,843.4144138331507,1179.7122152712861,842.4752839261655,1005.7530343297077,1243.0772462322113
1533222745.4020002,869.0233917276662,1188.4502608598389,889.0962997684935,988.8950382202252,1116.920653258415
1533222745.4060001,916.8286819753199,1199.3761734697953,871.3557087755705,966.4215457957753,947.6931155805282
1533222745.409,918.5350147460086,1162.2361240941812,887.8584465676632,932.709389298337,1129.2338392060074
1533222745.4129999,898.0485317471056,1168.7907768270177,885.7959212002731,915.8552289103811,923.0793467415848
1533222745.417,862.1945640613652,1177.5288224155702,801.2180169704384,915.8552289103811,941.5365226067321
1533222745.421,858.7784019364414,1188.4502608598389,854.0274538659276,921.4707252253486,1030.7724623221131
1533222745.425,884.3908764145035,1208.114219058348,929.5288945576606,928.961889366832,864.6137688389434
1533222745.429,901.4611972884828,1203.7429591812277,930.7659028075005,949.5673854078194,821.5365226067321
1533222745.4329998,880.9747142895797,1190.6381278812428,808.6442912244297,966.4215457957753,612.3068844194718
1533222745.437,858.7784019364414,1181.9000822926903,754.1846650448304,964.549713690786,566.1544924644227
1533222745.441,863.9008968320538,1186.2668680041227,879.6075001471121,962.6778815857969,910.7724623221131
1533222745.445,898.0485317471056,1195.0049135926752,932.0037560083308,960.8022137592811,1039.9978994906264
1533222745.448,915.1223492046314,1179.7122152712861,929.1157135233904,962.6778815857969,1046.1544924644227
1533222745.4520001,863.9008968320538,1175.345429559854,866.4051409232399,958.9303816542919,953.8434070262039
1533222745.456,816.0956065844,1188.4502608598389,767.7993603519826,957.0585495493027,1043.079346741585
1533222745.46,826.3405963756247,1177.5288224155702,825.9725461340727,951.4392175128086,1147.6910150711547
1533222745.464,889.5098747265694,1162.2361240941812,885.7959212002731,955.1828817227869,1313.8434070262037
1533222745.468,920.2448441002438,1166.6073839713015,895.2847208216544,964.549713690786,1178.4613768838944
1533222745.4720001,906.5836921840953,1170.9741696827336,862.691581320749,973.9127099372586,938.4613768838943
1533222745.476,874.1458866232787,1179.7122152712861,760.3730860979913,975.7845420422477,916.9227537677887
1533222745.48,858.7784019364414,1186.2668680041227,796.2674491181077,964.549713690786,1046.1544924644227
1533222745.484,923.657509641621,1195.0049135926752,849.9015581801567,985.1513740102469,1061.5365226067322
1533222745.4870002,969.7564671185862,1184.0834751484065,873.4182341429608,987.023206115236,670.7724623221131
1533222745.4910002,957.8051445566728,1173.1575625384498,863.9294345215793,972.0408778322694,581.5365226067321
1533222745.495,898.0485317471056,1179.7122152712861,781.8272366934051,962.6778815857969,403.07724623221134
1533222745.4989998,841.708081062462,1164.4195169498973,807.4064380235994,953.3110496177977,701.5365226067321
1533222745.5029998,860.4882312906765,1151.3146856499125,871.3557087755705,966.4215457957753,846.1565929737961
1533222745.5070002,915.1223492046314,1160.052731238465,825.9725461340727,977.6602098687636,581.5365226067321
1533222745.5110002,909.999854309019,1175.345429559854,862.279245237469,953.3110496177977,606.1565929737961
1533222745.515,862.1945640613652,1184.0834751484065,838.762569274665,934.5812214033261,753.8455075355773
1533222745.519,860.4882312906765,1210.297611914064,778.5268581251846,940.2005534398203,966.1565929737961
1533222745.5229998,875.8522193939673,1201.5595663255115,840.0004224754953,936.4568892298419,726.1565929737961
1533222745.5270002,939.0249943284582,1175.345429559854,890.7464890526037,955.1828817227869,652.3089849288452
1533222745.53,930.4863373079221,1168.7907768270177,861.8660642031988,968.2933779007644,1083.0751457228378
1533222745.534,833.1694240419258,1155.6814713613448,772.3375921210334,943.9480533713253,1080.0
1533222745.5379999,805.8541133767217,1120.7292890071346,771.5129199544733,943.9480533713253,636.9269547865357
1533222745.542,860.4882312906765,1083.5892396315205,840.8250946420552,983.2795419052577,701.5365226067321
1533222745.546,913.4125198503963,1157.864864217061,897.3480911400351,962.6778815857969,624.6137688389434
1533222745.55,884.3908764145035,1225.590310235453,915.5010182162381,895.2497328693937,818.4613768838943
1533222745.554,829.7567585005486,1181.9000822926903,783.4774259775154,882.1392366914162,919.9978994906264
1533222745.5579998,814.3892738137113,1157.864864217061,745.1082015067288,870.9044083399546,996.9206532584152
1533222745.562,869.0233917276662,1199.3761734697953,830.0984418198435,882.1392366914162,1104.6137688389435
1533222745.566,913.4125198503963,1197.1883064483914,887.0337744011033,893.3779007644046,600.0
1533222745.569,930.4863373079221,1190.6381278812428,910.137269329637,919.5988931203594,596.9248542771622
1533222745.573,896.342198976417,1188.4502608598389,795.4419320005574,925.2182251568536,950.7682613033661
1533222745.5770001,848.536908728763,1164.4195169498973,700.1373749485109,893.3779007644046,1021.5407236254791
1533222745.581,870.7297244983548,1186.2668680041227,816.0705654784209,898.9972328008987,698.4613768838943
1533222745.585,896.342198976417,1195.0049135926752,877.5441298287316,904.6165648373928,852.3068844194718
1533222745.589,884.3908764145035,1188.4502608598389,875.4816044613414,906.488396942382,919.9978994906264
1533222745.593,846.8270793745279,1188.4502608598389,847.8390328127665,925.2182251568536,596.9248542771622
1533222745.5970001,807.5604461474103,1179.7122152712861,746.758390790839,927.0900572618428,812.3110854382188
1533222745.601,810.976608272334,1173.1575625384498,783.0650898942354,930.8375571933477,910.7724623221131
1533222745.605,879.268381518891,1195.0049135926752,837.1123799905548,951.4392175128086,1024.615869348317
1533222745.6079998,911.7061870797077,1199.3761734697953,899.4106165074253,962.6778815857969,1316.9248542771622
1533222745.6120002,889.5098747265694,1192.821520736959,843.3008010437158,943.9480533713253,1175.3862311610565
1533222745.6160002,848.536908728763,1205.9308262026318,727.7799465970858,919.5988931203594,938.4613768838943
1533222745.62,848.536908728763,1195.0049135926752,782.651908859965,902.7447327324036,646.1523919550491
1533222745.6239998,911.7061870797077,1188.4502608598389,818.9586079633615,910.235896873887,633.8455075355773
1533222745.6279998,908.2935215383304,1197.1883064483914,872.5935619764008,900.8690649058879,836.9248542771622
1533222745.6320002,853.6594036243755,1190.6381278812428,877.9564659120116,876.5237403764487,775.384130651683
1533222745.6360002,824.6342636049361,1197.1883064483914,750.4719503933298,876.5237403764487,929.2296381872604
1533222745.64,829.7567585005486,1203.7429591812277,785.5399513449056,870.9044083399546,923.0793467415848
1533222745.644,869.0233917276662,1190.6381278812428,870.1178555747404,891.5060686594153,935.3862311610566
1533222745.6479998,932.1961666621575,1199.3761734697953,884.9704040827228,928.961889366832,981.5386231161057
1533222745.651,927.073671766545,1195.0049135926752,834.6366735888943,940.2005534398203,744.6137688389434
1533222745.655,882.6810470602683,1179.7122152712861,742.2201590217883,923.3463930518644,1024.615869348317
1533222745.659,887.8035419558807,1179.7122152712861,750.8842864766098,932.709389298337,944.6179698576905
1533222745.6629999,920.2448441002438,1166.6073839713015,851.551747464267,947.6917175813036,621.5386231161057
1533222745.667,952.6826496610604,1136.0219873285237,896.1102379392048,958.9303816542919,735.38833167043
1533222745.671,940.7313270991468,1133.8341203071195,830.9231139864035,966.4215457957753,815.3862311610566
1533222745.675,877.5585521646559,1142.572165895672,721.5915255439247,949.5673854078194,572.3110854382188
1533222745.679,887.8035419558807,1170.9741696827336,795.0295959172774,962.6778815857969,756.9206532584152
1533222745.6829998,933.9024994328458,1192.821520736959,885.7959212002731,983.2795419052577,1233.8455075355773
1533222745.687,947.5601547654479,1186.2668680041227,894.4600486550945,1002.0055343982027,1101.5386231161056
1533222745.69,944.1439926405242,1181.9000822926903,865.9919598889695,1016.991698402696,836.9248542771622
1533222745.694,894.6323696221818,1201.5595663255115,750.0587693590595,1015.1160305761802,858.4634773932679
1533222745.698,839.9982517082269,1179.7122152712861,746.758390790839,973.9127099372586,790.7724623221131
1533222745.7020001,872.4395538525899,1173.1575625384498,832.1609671872337,949.5673854078194,636.9269547865357
1533222745.706,933.9024994328458,1210.297611914064,903.948848276476,970.1690457272801,667.6910150711548
1533222745.71,923.657509641621,1212.4810047697802,895.6970569049345,966.4215457957753,467.6931155805283
1533222745.714,891.2197040808045,1201.5595663255115,765.7368349845923,955.1828817227869,418.46557790264137
1533222745.718,889.5098747265694,1212.4810047697802,741.8078229385083,938.3287213348311,710.7682613033661
1533222745.7220001,915.1223492046314,1214.6688717911843,871.3557087755705,925.2182251568536,987.6952160899018
1533222745.726,947.5601547654479,1223.4069173797368,883.7325508818926,938.3287213348311,1240.0021005093736
1533222745.7289999,959.5114773273614,1238.6996157011258,861.4537281199188,947.6917175813036,1086.1565929737963
1533222745.7329998,918.5350147460086,1243.066401412558,849.4892220968768,947.6917175813036,793.8476080449509
1533222745.7370002,896.342198976417,1247.4376612896783,769.0372135528128,949.5673854078194,775.384130651683
1533222745.7410002,942.4376598698356,1247.4376612896783,825.9725461340727,964.549713690786,938.4613768838943
1533222745.745,988.5366173468008,1243.066401412558,903.948848276476,985.1513740102469,1178.4613768838944
1533222745.7489998,990.2429501174894,1227.7737030911692,903.536512193196,987.023206115236,1221.5386231161056
1533222745.7529998,952.6826496610604,1216.8522646469005,790.0781831139564,973.9127099372586,1178.4613768838944
1533222745.7570002,896.342198976417,1201.5595663255115,725.7174212296956,977.6602098687636,990.7703618127396
1533222745.7610002,896.342198976417,1203.7429591812277,796.6797852013876,981.4038740787419,907.6910150711548
1533222745.765,933.9024994328458,1195.0049135926752,851.9649284985373,998.2618701882243,963.0751457228378
1533222745.769,950.9763168903717,1188.4502608598389,892.396678336714,1007.6248664346969,1039.9978994906264
1533222745.772,927.073671766545,1197.1883064483914,815.6582293951409,1003.8812022247184,990.7703618127396
1533222745.776,869.0233917276662,1205.9308262026318,737.6819272527375,1007.6248664346969,710.7682613033661
1533222745.78,851.9495742701404,1205.9308262026318,794.6172598339974,988.8950382202252,381.53862311610567
1533222745.784,898.0485317471056,1195.0049135926752,851.551747464267,962.6778815857969,741.5386231161057
1533222745.7879999,923.657509641621,1208.114219058348,882.0823615977823,972.0408778322694,876.9206532584152
1533222745.792,872.4395538525899,1203.7429591812277,825.9725461340727,958.9303816542919,541.5407236254791
1533222745.796,802.4379512517978,1201.5595663255115,730.2556529987463,930.8375571933477,836.9248542771622
1533222745.8,783.6578010235834,1201.5595663255115,774.8132985226938,936.4568892298419,723.0751457228378
1533222745.804,839.9982517082269,1186.2668680041227,832.986484304784,945.8198854763144,630.7703618127396
1533222745.8079998,891.2197040808045,1184.0834751484065,859.8035388358086,962.6778815857969,867.6952160899018
1533222745.811,889.5098747265694,1197.1883064483914,818.1339357968014,985.1513740102469,818.4613768838943
1533222745.815,853.6594036243755,1214.6688717911843,741.394641904238,988.8950382202252,966.1565929737961
1533222745.819,807.5604461474103,1234.3283558240055,799.5678276863282,972.0408778322694,849.2317386966339
1533222745.823,848.536908728763,1247.4376612896783,861.0413920366389,981.4038740787419,950.7682613033661
1533222745.8270001,932.1961666621575,1238.6996157011258,805.7562487394891,1015.1160305761802,916.9227537677887
1533222745.831,913.4125198503963,1225.590310235453,832.5733032705137,1013.244198471191,596.9248542771622
1533222745.835,853.6594036243755,1234.3283558240055,830.9231139864035,988.8950382202252,1052.3110854382187
1533222745.839,867.3170589569776,1238.6996157011258,780.1770474092949,994.5143702567194,1316.9248542771622
1533222745.843,913.4125198503963,1214.6688717911843,837.1123799905548,998.2618701882243,1089.231738696634
1533222745.8470001,945.8538219947593,1223.4069173797368,896.5225740224847,1018.8635305076851,1006.1523919550491
1533222745.85,937.3151649742231,1251.8089211667984,878.7819830295618,1028.2265267541577,963.0751457228378
1533222745.8539999,884.3908764145035,1236.5162228454096,731.4935061995766,1005.7530343297077,566.1544924644227
1533222745.8579998,857.0720691657527,1221.2235245240206,735.618556934357,988.8950382202252,396.92695478653576
1533222745.8620002,901.4611972884828,1232.1449629682893,865.1672877224096,988.8950382202252,683.0793467415848
1533222745.8660002,933.9024994328458,1232.1449629682893,956.3459490886852,990.770706046741,1000.0021005093736
1533222745.87,896.342198976417,1214.6688717911843,912.2006396480176,985.1513740102469,1110.7703618127396
1533222745.8739998,862.1945640613652,1208.114219058348,753.35914792728,977.6602098687636,716.9248542771622
1533222745.8779998,862.1945640613652,1221.2235245240206,767.7993603519826,966.4215457957753,787.6910150711548
1533222745.8820002,880.9747142895797,1221.2235245240206,839.174905357945,966.4215457957753,1116.920653258415
1533222745.8860002,906.5836921840953,1203.7429591812277,899.8229525907052,972.0408778322694,904.615869348317
1533222745.89,903.171026642718,1212.4810047697802,936.1296516941015,975.7845420422477,747.6952160899018
1533222745.893,853.6594036243755,1203.7429591812277,800.8056808871585,990.770706046741,720.0
1533222745.897,841.708081062462,1186.2668680041227,767.3870242687026,964.549713690786,1144.615869348317
1533222745.901,872.4395538525899,1199.3761734697953,832.986484304784,942.0723855448094,1101.5386231161056
1533222745.905,921.9511768709326,1216.8522646469005,886.2082572835529,973.9127099372586,809.2296381872604
1533222745.909,945.8538219947593,1232.1449629682893,921.2771031861191,983.2795419052577,1043.079346741585
1533222745.9129999,913.4125198503963,1229.961570112573,828.035071501463,957.0585495493027,1009.2338392060075
1533222745.917,886.0972091851921,1234.3283558240055,772.3375921210334,942.0723855448094,966.1565929737961
1533222745.921,891.2197040808045,1210.297611914064,851.9649284985373,934.5812214033261,1304.6179698576905
1533222745.925,942.4376598698356,1205.9308262026318,879.6075001471121,942.0723855448094,1064.6179698576905
1533222745.929,969.7564671185862,1234.3283558240055,917.1512075003483,958.9303816542919,923.0793467415848
1533222745.9320002,939.0249943284582,1240.8830085568418,848.2513688960465,968.2933779007644,1187.6931155805282
1533222745.936,909.999854309019,1223.4069173797368,736.4440740519073,949.5673854078194,923.0793467415848
1533222745.94,939.0249943284582,1199.3761734697953,813.5957040277507,927.0900572618428,923.0793467415848
1533222745.944,1009.0231003457039,1197.1883064483914,888.6839636852135,932.709389298337,1043.079346741585
1533222745.948,1038.0482403651436,1181.9000822926903,902.7109950756458,943.9480533713253,769.2338392060075
1533222745.9520001,1002.1942726794028,1173.1575625384498,847.0135156952163,964.549713690786,1120.0021005093736
1533222745.956,913.4125198503963,1188.4502608598389,759.9607500147113,970.1690457272801,1329.231738696634
1533222745.96,882.6810470602683,1214.6688717911843,818.1339357968014,970.1690457272801,1000.0021005093736
