timestamps,TP9,AF7,AF8,TP10,Right AUX
1533058060.635,1036.5477229552805,912.3381036021768,852.1023129643633,955.1999578697297,725.1812807337421
1533058060.6379998,999.1080077356198,894.6209219960264,852.1023129643633,976.797338771259,912.5162716172164
1533058060.6420002,945.2941075798806,882.8114831984797,844.717751131276,972.0001053256758,1096.8314271506713
1533058060.6460001,917.2131231709195,876.9037403898759,833.6413284841501,959.9971913153129,879.2795182054257
1533058060.65,952.3143536821208,885.7623311929511,842.6668107018112,959.9971913153129,646.6222443228908
1533058060.654,1013.1484999401002,888.7192260070834,850.8714126246804,995.9961029499966,849.0626001436543
1533058060.658,982.7290308226798,879.8606352040082,850.4613925797895,1012.7962504059427,1130.068180562462
1533058060.6620002,949.9710769967996,885.7623311929511,853.7432333489371,993.5974862272051,1148.1995690369633
1533058060.6660001,947.6325922883401,900.5286648046301,857.8459544128767,981.5994874150446,770.503563732803
1533058060.67,985.0675155311393,897.5717699904978,852.9231932591553,979.1959554940505,782.589093320073
1533058060.674,1045.9064537659804,909.3872556077054,854.5641136437291,1007.9990169603595,1296.2581358086081
1533058060.678,1036.5477229552805,924.1475423997235,847.1795518106418,1031.9999297828829,1332.5147245704184
1533058060.681,999.1080077356198,924.1475423997235,836.1022889585058,1000.7982515937823,492.5178186640146
1533058060.685,940.6123461860999,927.0983903941949,837.3331892981888,957.5985745925213,492.5178186640146
1533058060.689,942.9508308945594,944.8155720003454,843.4868507915932,940.7984271365752,1027.3380849770706
1533058060.6929998,1022.5072307508001,944.8155720003454,857.8459544128767,940.7984271365752,1069.640532626112
1533058060.697,1024.8457154592597,909.3872556077054,865.6405362908549,972.0001053256758,1124.0285098624233
1533058060.701,975.7087847204394,912.3381036021768,851.2822728745814,983.9981041378362,906.4766009171777
1533058060.705,926.5718539816194,918.2397995911195,835.282248868724,892.7966014915286,737.2668103210123
1533058060.7089999,919.5563998562407,924.1475423997235,837.7432093430797,844.7996910446844,725.1812807337421
1533058060.7129998,994.4310383187006,947.766419994817,852.9231932591553,890.397984768737,685.8986684347201
1533058060.717,1010.8100152316407,935.9569811972701,847.5895718555328,916.7975143140519,791.6547875573236
1533058060.72,954.6528383905803,924.1475423997235,832.4104281444672,923.9982796806291,305.1828277805404
1533058060.724,910.1928770686793,941.8647240058741,846.3586715158499,902.3959835808975,202.44654400795625
1533058060.728,919.5563998562407,956.6250107978923,847.9995919004238,885.5958361249513,746.3325045582629
1533058060.732,987.4107922164604,962.5327536064958,846.3586715158499,912.0002808684687,954.8187192662579
1533058060.736,996.7695230271603,950.7172679892885,842.6668107018112,945.5956605821584,743.3064810210509
1533058060.74,961.6730844928206,962.5327536064958,834.4613685739321,974.3987220484673,761.4378694955523
1533058060.744,938.2738614776403,959.5758587923638,837.7432093430797,988.7953375834194,1066.6206972760926
1533058060.748,935.9353767691807,930.0492383886665,836.9231692532978,967.1979566818901,891.3650477926957
1533058060.752,1013.1484999401002,918.2397995911195,842.6668107018112,986.3967208606279,966.9042488535279
1533058060.756,1073.9826461980797,915.2889515966483,845.9486514709589,1041.5993118722517,1054.52897950163
1533058060.76,1008.4667385463196,935.9569811972701,844.717751131276,1034.3985465056744,676.8329741974695
1533058060.7629998,968.6885386181992,962.5327536064958,849.6405122849975,1012.7962504059427,722.1614453837228
1533058060.7670002,961.6730844928206,959.5758587923638,843.4868507915932,988.7953375834194,960.8645781534891
1533058060.7710001,985.0675155311393,935.9569811972701,840.6150300673364,962.3958080381045,776.5494226200343
1533058060.775,1034.2044462699594,924.1475423997235,845.9486514709589,1010.3976336831511,803.7403171445936
1533058060.779,992.0877616333795,924.1475423997235,831.5895478496753,1019.99701577252,1021.2922260898392
1533058060.783,961.6730844928206,912.3381036021768,830.7695077598934,991.1988695044134,933.6674954417371
1533058060.7870002,949.9710769967996,921.1966944052521,843.4868507915932,986.3967208606279,776.5494226200343
1533058060.7910001,959.3298078074995,927.0983903941949,846.7686915607409,950.397809225944,879.2795182054257
1533058060.795,1017.8254693570194,927.0983903941949,847.5895718555328,976.797338771259,1054.52897950163
1533058060.799,1003.7897691294005,944.8155720003454,837.7432093430797,988.7953375834194,743.3064810210509
1533058060.802,949.9710769967996,947.766419994817,840.2050100224454,969.5965734046817,752.3721752583016
1533058060.806,919.5563998562407,933.0061332027988,846.3586715158499,962.3958080381045,1172.3706282115033
1533058060.81,959.3298078074995,924.1475423997235,833.6413284841501,919.1961310368436,994.1013315652799
1533058060.814,1064.62391538738,927.0983903941949,834.4613685739321,957.5985745925213,383.7418641913918
1533058060.8179998,1041.2246923721998,953.6741628034206,840.2050100224454,995.9961029499966,625.4710204983701
1533058060.822,964.0115692012802,956.6250107978923,837.7432093430797,972.0001053256758,1238.8503232222774
1533058060.826,947.6325922883401,944.8155720003454,832.8204481893582,955.1999578697297,1241.8701585722968
1533058060.83,975.7087847204394,953.6741628034206,826.2559264460529,952.7964259487356,628.4908558483894
1533058060.8339999,1041.2246923721998,953.6741628034206,834.0513485290411,979.1959554940505,616.4053262611194
1533058060.8379998,1034.2044462699594,921.1966944052521,838.5640896378717,1000.7982515937823,779.5692579700536
1533058060.842,978.0520614057607,912.3381036021768,835.282248868724,983.9981041378362,951.7988839162384
1533058060.845,940.6123461860999,921.1966944052521,831.1795278047844,940.7984271365752,1093.811591800652
1533058060.849,938.2738614776403,933.0061332027988,831.9995678945663,914.3988975912603,994.1013315652799
1533058060.853,987.4107922164604,950.7172679892885,843.4868507915932,940.7984271365752,643.5962207856787
1533058060.857,994.4310383187006,938.9078291917418,843.4868507915932,959.9971913153129,568.0570197248467
1533058060.861,940.6123461860999,938.9078291917418,847.5895718555328,926.3968964034208,643.5962207856787
1533058060.865,896.1571768410604,941.8647240058741,859.0768547525596,878.3999859565765,646.6222443228908
1533058060.869,872.7579538258801,915.2889515966483,848.4104521503247,825.5960116677443,622.444996961158
1533058060.873,947.6325922883401,924.1475423997235,857.0259143230949,861.5998385006305,568.0570197248467
1533058060.877,982.7290308226798,956.6250107978923,859.0768547525596,914.3988975912603,546.905795900326
1533058060.881,907.8543923602198,941.8647240058741,849.6405122849975,892.7966014915286,477.41245372672523
1533058060.885,886.7984460303607,927.0983903941949,856.2050340283029,861.5998385006305,948.7790485662191
1533058060.8879998,863.3992230151803,930.0492383886665,847.1795518106418,830.39816031153,1139.1338747997127
1533058060.8920002,919.5563998562407,941.8647240058741,848.8204721952156,842.3961591236904,773.5233990828223
1533058060.8960001,987.4107922164604,933.0061332027988,859.8977350473516,873.597837312791,758.4180341455329
1533058060.9,968.6885386181992,944.8155720003454,852.1023129643633,878.3999859565765,679.8589977346815
1533058060.904,954.6528383905803,971.3852975899105,861.1277951820244,842.3961591236904,770.503563732803
1533058060.908,919.5563998562407,962.5327536064958,863.9996159062812,820.7987782221611,957.8385546162772
1533058060.9120002,980.3905461142202,953.6741628034206,856.2050340283029,861.5998385006305,906.4766009171777
1533058060.9160001,1055.2651845766802,962.5327536064958,857.8459544128767,938.3998104137836,767.4837283827836
1533058060.92,1003.7897691294005,962.5327536064958,854.1540935988381,959.9971913153129,1190.5020166860047
1533058060.924,966.3500539097397,953.6741628034206,843.0768307467022,926.3968964034208,1136.1140394496933
1533058060.927,940.6123461860999,971.3852975899105,834.871388618823,892.7966014915286,746.3325045582629
1533058060.931,980.3905461142202,986.1516312015895,843.8977110414942,895.2001334125226,978.9897784407979
1533058060.935,1038.8862076637402,971.3852975899105,850.4613925797895,950.397809225944,864.1741532681364
1533058060.939,980.3905461142202,968.434449595439,846.7686915607409,957.5985745925213,915.5422951544284
1533058060.9429998,926.5718539816194,989.1024791960609,849.2304922401066,904.7995155018915,797.700646444555
1533058060.947,914.87463846246,983.200783207118,851.6922929194724,859.1963065796365,812.8060113818443
1533058060.951,961.6730844928206,956.6250107978923,843.4868507915932,854.3990731340533,803.7403171445936
1533058060.955,999.1080077356198,959.5758587923638,849.2304922401066,878.3999859565765,716.1155864964916
1533058060.9589999,942.9508308945594,950.7172679892885,850.4613925797895,875.9964540355825,933.6674954417371
1533058060.9629998,893.8186921326009,944.8155720003454,844.307731086385,863.9984552234221,897.410906679927
1533058060.967,861.0607383067207,944.8155720003454,841.4359103621283,803.998630766215,824.8915409691143
1533058060.97,931.2536153754,959.5758587923638,836.9231692532978,808.7958642117982,849.0626001436543
1533058060.974,1052.9266998682206,962.5327536064958,841.8459304070193,931.1990450472064,1151.2194043869827
1533058060.978,947.6325922883401,912.3381036021768,852.5123330092542,885.5958361249513,1184.462345985966
1533058060.982,828.3027844808406,894.6209219960264,841.8459304070193,787.198483310269,960.8645781534891
1533058060.986,851.6972155191594,900.5286648046301,839.7949899775546,823.1973949449527,1039.4236145643406
1533058060.99,896.1571768410604,876.9037403898759,853.7432333489371,861.5998385006305,1096.8314271506713
1533058060.994,938.2738614776403,862.1434535978577,873.0250981239423,909.5967489474747,679.8589977346815
1533058060.998,926.5718539816194,868.0511964064615,875.896918848199,923.9982796806291,824.8915409691143
1533058061.002,856.3789769129401,885.7623311929511,871.3841777393684,899.9973668581058,954.8187192662579
1533058061.006,807.2420461741199,873.9528923954044,863.5895958613902,902.3959835808975,685.8986684347201
1533058061.01,830.6412691893001,853.2848627947825,850.0513725348985,902.3959835808975,776.5494226200343
1533058061.0129998,912.5361537540005,871.002044400933,868.5123570151117,945.5956605821584,861.1481297309243
1533058061.0170002,980.3905461142202,876.9037403898759,873.0250981239423,1015.1997823269368,728.2011160837616
1533058061.0210001,945.2941075798806,879.8606352040082,863.9996159062812,1007.9990169603595,833.957235206365
1533058061.025,872.7579538258801,888.7192260070834,865.6405362908549,972.0001053256758,800.7204817945743
1533058061.029,900.8341462579795,903.4795127991016,856.6150540731938,964.7993399590986,649.6420796729101
1533058061.033,989.74927692492,935.9569811972701,866.051396540756,991.1988695044134,583.1685728493287
1533058061.0370002,1024.8457154592597,950.7172679892885,863.5895958613902,1015.1997823269368,655.6817503729487
1533058061.0410001,959.3298078074995,953.6741628034206,851.2822728745814,995.9961029499966,840.0030940935964
1533058061.045,896.1571768410604,956.6250107978923,856.2050340283029,945.5956605821584,1036.4037792143213
1533058061.049,905.5159076517602,950.7172679892885,848.4104521503247,919.1961310368436,1057.555003038842
1533058061.052,961.6730844928206,947.766419994817,853.3332133040462,933.597661769998,815.8258467318636
1533058061.056,966.3500539097397,941.8647240058741,859.4868747974506,957.5985745925213,450.2153710149732
1533058061.06,898.4956615495199,935.9569811972701,853.3332133040462,947.9991925031525,670.7933034974308
1533058061.064,847.0202461022402,941.8647240058741,854.97413368862,899.9973668581058,634.530526548428
1533058061.0679998,842.3384847084595,941.8647240058741,860.7177751371335,885.5958361249513,432.0901707276645
1533058061.072,898.4956615495199,924.1475423997235,863.9996159062812,887.9993680459454,607.3396320238687
1533058061.076,945.2941075798806,918.2397995911195,869.3332373099037,955.1999578697297,836.9770705563843
1533058061.08,935.9353767691807,918.2397995911195,869.3332373099037,983.9981041378362,942.7331896789877
1533058061.0839999,924.2333692731598,930.0492383886665,868.9232172650127,938.3998104137836,519.7149013757667
1533058061.0879998,924.2333692731598,938.9078291917418,869.7432573547945,931.1990450472064,534.820266313056
1533058061.092,987.4107922164604,944.8155720003454,872.2050580341603,957.5985745925213,673.8131388474501
1533058061.095,1069.3056767811606,977.2930403985142,873.0250981239423,1031.9999297828829,988.0554726780485
1533058061.099,1064.62391538738,983.200783207118,866.4614165856469,1077.5982235069355,1081.726062213382
1533058061.103,1022.5072307508001,980.2438883929857,863.1795758164992,1060.7980760509893,746.3325045582629
1533058061.107,989.74927692492,995.0102220046647,859.0768547525596,1015.1997823269368,1069.640532626112
1533058061.111,1001.4464924440794,959.5758587923638,853.7432333489371,998.3996348709907,994.1013315652799
1533058061.115,1022.5072307508001,935.9569811972701,860.3077550922425,1027.1977811390973,634.530526548428
1533058061.119,968.6885386181992,918.2397995911195,870.5641376495865,1065.600224694775,1000.1410022653185
1533058061.123,917.2131231709195,891.6700740015549,858.2559744577677,1031.9999297828829,595.2541024365987
1533058061.127,868.0761924320994,906.4303607935731,853.7432333489371,957.5985745925213,643.5962207856787
1533058061.131,910.1928770686793,912.3381036021768,866.8714366305378,938.3998104137836,1323.4490303331677
1533058061.1339998,1003.7897691294005,924.1475423997235,877.9486994826738,957.5985745925213,1024.3182496270513
1533058061.1379998,989.74927692492,927.0983903941949,864.8204962010731,972.0001053256758,610.359467373888
1533058061.1420002,938.2738614776403,915.2889515966483,857.0259143230949,957.5985745925213,598.273937786618
1533058061.1460001,898.4956615495199,930.0492383886665,860.3077550922425,907.198132224683,833.957235206365
1533058061.15,935.9353767691807,947.766419994817,851.6922929194724,885.5958361249513,921.5819658544671
1533058061.154,1017.8254693570194,953.6741628034206,864.8204962010731,926.3968964034208,1057.555003038842
1533058061.158,992.0877616333795,938.9078291917418,870.1541176046956,945.5956605821584,1111.9429802751533
1533058061.1620002,924.2333692731598,921.1966944052521,864.8204962010731,926.3968964034208,985.0356373280292
1533058061.1660001,882.1166846365799,915.2889515966483,861.5386554319253,904.7995155018915,978.9897784407979
1533058061.17,889.1369307388202,891.6700740015549,855.384153733511,868.7956886690052,800.7204817945743
1533058061.174,966.3500539097397,885.7623311929511,864.4104761561821,885.5958361249513,719.1354218465109
1533058061.177,985.0675155311393,918.2397995911195,870.1541176046956,943.1970438593668,743.3064810210509
1533058061.181,954.6528383905803,950.7172679892885,865.6405362908549,947.9991925031525,546.905795900326
1533058061.185,917.2131231709195,956.6250107978923,857.4359343679857,909.5967489474747,764.4577048455716
1533058061.189,917.2131231709195,947.766419994817,846.7686915607409,875.9964540355825,1021.2922260898392
1533058061.1929998,985.0675155311393,956.6250107978923,850.0513725348985,907.198132224683,954.8187192662579
1533058061.197,992.0877616333795,935.9569811972701,846.3586715158499,940.7984271365752,782.589093320073
1533058061.201,924.2333692731598,927.0983903941949,844.307731086385,914.3988975912603,456.26122990220455
1533058061.205,898.4956615495199,944.8155720003454,850.0513725348985,878.3999859565765,725.1812807337421
1533058061.2089999,900.8341462579795,933.0061332027988,846.7686915607409,880.7986026793682,737.2668103210123
1533058061.2129998,989.74927692492,927.0983903941949,850.4613925797895,957.5985745925213,429.0641471904525
1533058061.217,1048.24493847444,983.200783207118,847.5895718555328,1000.7982515937823,643.5962207856787
1533058061.22,966.3500539097397,1024.530795588701,846.7686915607409,919.1961310368436,543.8859605503067
1533058061.224,914.87463846246,1012.7213567911543,853.3332133040462,868.7956886690052,389.7877230786231
1533058061.228,935.9353767691807,995.0102220046647,847.9995919004238,847.198307767476,438.1298414277032
1533058061.232,1036.5477229552805,986.1516312015895,850.8714126246804,866.3970719462137,586.188408199348
1533058061.236,1062.2854306789204,974.3421924040427,850.4613925797895,902.3959835808975,444.17570031493455
1533058061.24,1027.1889921445809,971.3852975899105,831.5895478496753,899.9973668581058,610.359467373888
1533058061.244,987.4107922164604,974.3421924040427,835.692268913615,890.397984768737,631.5106911984087
1533058061.248,956.9913230990398,947.766419994817,845.5386314260679,890.397984768737,456.26122990220455
1533058061.252,1043.567969057521,935.9569811972701,852.1023129643633,890.397984768737,688.9185037847395
1533058061.256,1109.0790847324195,956.6250107978923,865.230516245964,921.5996629578375,746.3325045582629
1533058061.2589998,1066.9624000958395,959.5758587923638,862.7687155665983,967.1979566818901,710.0697276092602
1533058061.2629998,996.7695230271603,965.4836016009675,857.0259143230949,959.9971913153129,471.36659483949387
1533058061.2670002,973.3703000119799,989.1024791960609,849.2304922401066,919.1961310368436,628.4908558483894
1533058061.2710001,1022.5072307508001,995.0102220046647,852.5123330092542,926.3968964034208,982.0158019780098
1533058061.275,1073.9826461980797,974.3421924040427,868.5123570151117,986.3967208606279,852.0886236808664
1533058061.279,1071.6441614896203,950.7172679892885,857.0259143230949,1024.7991644163055,991.0814962152605
1533058061.283,1031.8659615615,935.9569811972701,846.3586715158499,969.5965734046817,912.5162716172164
1533058061.2870002,966.3500539097397,947.766419994817,853.3332133040462,914.3988975912603,870.213823968175
1533058061.2910001,982.7290308226798,962.5327536064958,842.2559504519103,887.9993680459454,782.589093320073
1533058061.295,1057.6036692851396,974.3421924040427,837.7432093430797,895.2001334125226,891.3650477926957
1533058061.299,1043.567969057521,980.2438883929857,838.9741096827626,928.7955131262123,1278.1267473341068
1533058061.302,987.4107922164604,956.6250107978923,829.5386074202105,914.3988975912603,800.7204817945743
1533058061.306,964.0115692012802,959.5758587923638,820.5122849975394,885.5958361249513,631.5106911984087
1533058061.31,980.3905461142202,965.4836016009675,818.8713646129655,878.3999859565765,954.8187192662579
1533058061.314,1048.24493847444,959.5758587923638,840.6150300673364,907.198132224683,921.5819658544671
1533058061.3179998,1041.2246923721998,953.6741628034206,844.307731086385,943.1970438593668,707.0498922592409
1533058061.322,985.0675155311393,962.5327536064958,835.692268913615,916.7975143140519,707.0498922592409
1533058061.326,959.3298078074995,965.4836016009675,844.307731086385,859.1963065796365,1069.640532626112
1533058061.33,971.0318153035204,938.9078291917418,841.0258903172374,854.3990731340533,1211.6532405105254
1533058061.3339999,1043.567969057521,953.6741628034206,838.1540695929807,902.3959835808975,985.0356373280292
1533058061.3379998,1062.2854306789204,965.4836016009675,841.4359103621283,923.9982796806291,927.6278247416984
1533058061.342,1008.4667385463196,971.3852975899105,845.9486514709589,916.7975143140519,1078.7062268633626
1533058061.345,959.3298078074995,950.7172679892885,840.2050100224454,883.1972194021598,915.5422951544284
1533058061.349,952.3143536821208,933.0061332027988,834.0513485290411,851.9955412130593,619.4251616111387
1533058061.353,1034.2044462699594,950.7172679892885,841.8459304070193,899.9973668581058,586.188408199348
1533058061.357,1041.2246923721998,930.0492383886665,838.1540695929807,928.7955131262123,673.8131388474501
1533058061.361,952.3143536821208,918.2397995911195,840.2050100224454,912.0002808684687,779.5692579700536
1533058061.365,921.8948845647002,935.9569811972701,851.6922929194724,895.2001334125226,788.6349522073043
1533058061.369,928.9151306669405,938.9078291917418,843.8977110414942,883.1972194021598,716.1155864964916
1533058061.373,999.1080077356198,927.0983903941949,849.6405122849975,883.1972194021598,776.5494226200343
1533058061.377,1031.8659615615,894.6209219960264,856.6150540731938,919.1961310368436,1039.4236145643406
1533058061.381,968.6885386181992,885.7623311929511,847.1795518106418,950.397809225944,1084.7458975634013
1533058061.3839998,898.4956615495199,903.4795127991016,841.4359103621283,919.1961310368436,906.4766009171777
1533058061.3879998,889.1369307388202,906.4303607935731,842.6668107018112,875.9964540355825,737.2668103210123
1533058061.3920002,966.3500539097397,885.7623311929511,847.9995919004238,892.7966014915286,906.4766009171777
1533058061.3960001,994.4310383187006,835.5676811886319,843.8977110414942,962.3958080381045,776.5494226200343
1533058061.4,935.9353767691807,817.8565464021423,837.7432093430797,976.797338771259,492.5178186640146
1533058061.404,905.5159076517602,835.5676811886319,835.692268913615,964.7993399590986,722.1614453837228
1533058061.408,863.3992230151803,832.6168331941604,834.871388618823,928.7955131262123,1117.982650975192
1533058061.4120002,900.8341462579795,808.997955599067,844.307731086385,887.9993680459454,1166.3309575114647
1533058061.4160001,971.0318153035204,806.0471076045956,848.4104521503247,935.9962784927895,975.9699430907785
1533058061.42,917.2131231709195,823.7582423910852,835.692268913615,943.1970438593668,843.0229294436157
1533058061.424,858.7174616213996,853.2848627947825,842.6668107018112,902.3959835808975,495.53765401403393
1533058061.427,856.3789769129401,859.1926056033863,848.8204721952156,895.2001334125226,132.9532018343555
1533058061.431,919.5563998562407,817.8565464021423,852.1023129643633,897.5987501353143,274.9659097187689
1533058061.435,987.4107922164604,806.0471076045956,858.2559744577677,945.5956605821584,930.6476600917177
1533058061.439,942.9508308945594,829.665985199689,850.8714126246804,976.797338771259,861.1481297309243
1533058061.4429998,905.5159076517602,826.7151372052175,850.4613925797895,959.9971913153129,589.2082435493674
1533058061.447,905.5159076517602,803.0902127904633,845.127771176167,921.5996629578375,697.9841980219902
1533058061.451,928.9151306669405,814.89965158801,843.8977110414942,895.2001334125226,725.1812807337421
1533058061.455,992.0877616333795,838.5245760027642,859.4868747974506,947.9991925031525,900.4307420299464
1533058061.4589999,975.7087847204394,844.4262719917073,859.0768547525596,993.5974862272051,879.2795182054257
1533058061.4629998,893.8186921326009,847.3831668058396,850.4613925797895,964.7993399590986,658.7077739101608
1533058061.466,870.4194691174206,835.5676811886319,845.9486514709589,931.1990450472064,664.7474446101994
1533058061.47,907.8543923602198,808.997955599067,849.2304922401066,919.1961310368436,613.3793027239074
1533058061.474,978.0520614057607,811.9488035935385,859.8977350473516,964.7993399590986,800.7204817945743
1533058061.478,985.0675155311393,811.9488035935385,845.5386314260679,1022.3956324953116,643.5962207856787
1533058061.482,942.9508308945594,817.8565464021423,842.2559504519103,986.3967208606279,432.0901707276645
1533058061.486,905.5159076517602,829.665985199689,853.3332133040462,928.7955131262123,846.042764793635
1533058061.49,947.6325922883401,853.2848627947825,843.8977110414942,916.7975143140519,444.17570031493455
1533058061.494,1027.1889921445809,868.0511964064615,854.1540935988381,947.9991925031525,105.75611912260347
1533058061.498,1020.1687460423406,859.1926056033863,850.8714126246804,988.7953375834194,655.6817503729487
1533058061.502,971.0318153035204,873.9528923954044,838.5640896378717,972.0001053256758,737.2668103210123
1533058061.506,961.6730844928206,891.6700740015549,844.717751131276,952.7964259487356,800.7204817945743
1533058061.5089998,961.6730844928206,891.6700740015549,839.3841297276535,935.9962784927895,749.3523399082823
1533058061.5129998,1015.4869846485599,888.7192260070834,841.0258903172374,952.7964259487356,374.67616995414113
1533058061.5170002,1045.9064537659804,897.5717699904978,843.8977110414942,1000.7982515937823,610.359467373888
1533058061.5210001,975.7087847204394,894.6209219960264,836.5123090033968,1010.3976336831511,607.3396320238687
1533058061.525,924.2333692731598,876.9037403898759,834.0513485290411,976.797338771259,794.674622907343
1533058061.529,924.2333692731598,865.0943015923292,835.282248868724,935.9962784927895,852.0886236808664
1533058061.533,978.0520614057607,862.1434535978577,843.0768307467022,959.9971913153129,776.5494226200343
1533058061.5370002,1022.5072307508001,853.2848627947825,852.5123330092542,1034.3985465056744,1000.1410022653185
1533058061.5410001,966.3500539097397,829.665985199689,849.6405122849975,1043.9979285950433,903.4505773799657
1533058061.545,905.5159076517602,814.89965158801,840.2050100224454,988.7953375834194,707.0498922592409
1533058061.549,910.1928770686793,808.997955599067,847.5895718555328,945.5956605821584,782.589093320073
1533058061.552,982.7290308226798,829.665985199689,870.1541176046956,967.1979566818901,1099.8574506878833
1533058061.556,1027.1889921445809,838.5245760027642,862.7687155665983,1036.797163228466,945.7530250290072
1533058061.56,985.0675155311393,811.9488035935385,843.8977110414942,1051.1986939616204,985.0356373280292
1533058061.564,956.9913230990398,838.5245760027642,848.8204721952156,1015.1997823269368,1220.718934747776
1533058061.5679998,956.9913230990398,876.9037403898759,853.3332133040462,1000.7982515937823,906.4766009171777
1533058061.572,1027.1889921445809,882.8114831984797,857.0259143230949,1007.9990169603595,592.2280788993867
1533058061.576,1097.3818692132602,879.8606352040082,860.3077550922425,1043.9979285950433,577.1227139620974
1533058061.58,1057.6036692851396,871.002044400933,861.5386554319253,1067.9988414175666,855.1084590308857
1533058061.5839999,1013.1484999401002,853.2848627947825,860.3077550922425,1063.196692773781,945.7530250290072
1533058061.5879998,1010.8100152316407,850.334014800311,847.1795518106418,1029.5963978618888,770.503563732803
1533058061.591,1050.5834231828994,856.235710789254,843.8977110414942,1005.5954850393655,876.2596828554064
1533058061.595,1092.7001078194794,844.4262719917073,853.7432333489371,1027.1977811390973,870.213823968175
1533058061.599,1048.24493847444,838.5245760027642,852.9231932591553,1015.1997823269368,900.4307420299464
1533058061.603,1020.1687460423406,856.235710789254,858.6668347076687,1003.1968683165738,927.6278247416984
1533058061.607,994.4310383187006,873.9528923954044,861.9486754768163,979.1959554940505,897.410906679927
1533058061.611,999.1080077356198,856.235710789254,855.384153733511,969.5965734046817,704.0300569092215
1533058061.615,1071.6441614896203,838.5245760027642,858.2559744577677,1015.1997823269368,658.7077739101608
1533058061.619,1062.2854306789204,859.1926056033863,857.4359343679857,1041.5993118722517,1051.5091441516106
1533058061.623,999.1080077356198,868.0511964064615,848.8204721952156,1010.3976336831511,915.5422951544284
1533058061.627,935.9353767691807,853.2848627947825,845.5386314260679,940.7984271365752,921.5819658544671
1533058061.631,945.2941075798806,871.002044400933,854.5641136437291,962.3958080381045,873.239847505387
1533058061.6339998,1015.4869846485599,882.8114831984797,866.051396540756,1024.7991644163055,305.1828277805404
1533058061.6379998,973.3703000119799,862.1434535978577,860.3077550922425,995.9961029499966,398.84722912868114
1533058061.6420002,907.8543923602198,853.2848627947825,864.8204962010731,952.7964259487356,818.8518702690757
1533058061.6460001,886.7984460303607,850.334014800311,873.4359583738432,938.3998104137836,697.9841980219902
1533058061.65,917.2131231709195,829.665985199689,873.4359583738432,959.9971913153129,546.905795900326
1533058061.654,1020.1687460423406,841.4754239972358,886.9741817003348,1072.7960748631497,818.8518702690757
1533058061.658,1041.2246923721998,871.002044400933,878.7687395724557,1077.5982235069355,1151.2194043869827
1533058061.6620002,940.6123461860999,885.7623311929511,864.4104761561821,962.3958080381045,1145.179733686944
1533058061.6660001,858.7174616213996,871.002044400933,861.5386554319253,871.1992205899993,885.325377092657
1533058061.67,914.87463846246,859.1926056033863,859.0768547525596,871.1992205899993,924.6018012044865
1533058061.674,989.74927692492,891.6700740015549,861.5386554319253,899.9973668581058,1111.9429802751533
1533058061.677,975.7087847204394,891.6700740015549,854.5641136437291,885.5958361249513,843.0229294436157
1533058061.681,956.9913230990398,894.6209219960264,853.3332133040462,904.7995155018915,794.674622907343
1533058061.685,931.2536153754,915.2889515966483,850.8714126246804,897.5987501353143,640.5763854356594
1533058061.689,938.2738614776403,927.0983903941949,846.7686915607409,861.5998385006305,592.2280788993867
1533058061.6929998,1015.4869846485599,944.8155720003454,856.2050340283029,849.5969244902676,840.0030940935964
1533058061.697,1062.2854306789204,965.4836016009675,848.4104521503247,892.7966014915286,746.3325045582629
1533058061.701,1038.8862076637402,968.434449595439,839.7949899775546,909.5967489474747,776.5494226200343
1533058061.705,985.0675155311393,980.2438883929857,847.9995919004238,873.597837312791,900.4307420299464
1533058061.7089999,959.3298078074995,980.2438883929857,846.3586715158499,842.3961591236904,978.9897784407979
1533058061.7129998,1022.5072307508001,965.4836016009675,849.6405122849975,842.3961591236904,972.9501077407591
1533058061.716,1062.2854306789204,956.6250107978923,850.8714126246804,899.9973668581058,583.1685728493287
1533058061.72,1001.4464924440794,950.7172679892885,844.717751131276,904.7995155018915,368.6364992541025
1533058061.724,928.9151306669405,944.8155720003454,850.0513725348985,873.597837312791,404.8930880159125
1533058061.728,910.1928770686793,927.0983903941949,847.5895718555328,868.7956886690052,670.7933034974308
1533058061.732,961.6730844928206,903.4795127991016,850.4613925797895,873.597837312791,1054.52897950163
1533058061.736,1022.5072307508001,906.4303607935731,861.5386554319253,933.597661769998,969.9302723907398
1533058061.74,987.4107922164604,894.6209219960264,854.1540935988381,957.5985745925213,930.6476600917177
1533058061.744,933.5921000838596,882.8114831984797,850.0513725348985,928.7955131262123,942.7331896789877
1533058061.748,886.7984460303607,894.6209219960264,844.307731086385,890.397984768737,885.325377092657
1533058061.752,928.9151306669405,879.8606352040082,844.307731086385,892.7966014915286,1000.1410022653185
1533058061.756,1010.8100152316407,885.7623311929511,850.4613925797895,943.1970438593668,622.444996961158
1533058061.7589998,973.3703000119799,894.6209219960264,850.4613925797895,945.5956605821584,710.0697276092602
1533058061.7629998,933.5921000838596,888.7192260070834,848.4104521503247,945.5956605821584,972.9501077407591
1533058061.7670002,914.87463846246,882.8114831984797,841.0258903172374,921.5996629578375,930.6476600917177
1533058061.7710001,961.6730844928206,879.8606352040082,842.2559504519103,880.7986026793682,885.325377092657
1533058061.775,1050.5834231828994,909.3872556077054,851.2822728745814,931.1990450472064,734.2469749709928
1533058061.779,1045.9064537659804,906.4303607935731,856.6150540731938,974.3987220484673,815.8258467318636
1533058061.783,1015.4869846485599,894.6209219960264,862.3586955217073,945.5956605821584,1021.2922260898392
1533058061.7870002,982.7290308226798,921.1966944052521,862.3586955217073,914.3988975912603,861.1481297309243
1533058061.7910001,1006.12825383786,953.6741628034206,861.5386554319253,897.5987501353143,988.0554726780485
1533058061.795,1064.62391538738,977.2930403985142,869.7432573547945,928.7955131262123,1417.119619868501
1533058061.7979999,1057.6036692851396,995.0102220046647,865.6405362908549,945.5956605821584,1311.3635007458975
1533058061.802,989.74927692492,995.0102220046647,863.1795758164992,909.5967489474747,988.0554726780485
1533058061.806,952.3143536821208,992.0533271905324,860.7177751371335,875.9964540355825,779.5692579700536
1533058061.81,966.3500539097397,989.1024791960609,859.0768547525596,832.7967770343215,779.5692579700536
1533058061.814,1041.2246923721998,995.0102220046647,863.5895958613902,868.7956886690052,679.8589977346815
1533058061.8179998,1048.24493847444,989.1024791960609,864.8204962010731,909.5967489474747,670.7933034974308
1533058061.822,971.0318153035204,947.766419994817,864.4104761561821,883.1972194021598,812.8060113818443
1533058061.826,931.2536153754,924.1475423997235,860.7177751371335,839.9975424008987,840.0030940935964
1533058061.83,942.9508308945594,906.4303607935731,864.4104761561821,813.5980128555839,818.8518702690757
1533058061.8339999,1013.1484999401002,885.7623311929511,876.7177991429909,835.1953937571132,1039.4236145643406
1533058061.8379998,1036.5477229552805,865.0943015923292,873.0250981239423,892.7966014915286,1317.4093596331288
1533058061.841,999.1080077356198,873.9528923954044,861.5386554319253,885.5958361249513,912.5162716172164
1533058061.845,973.3703000119799,876.9037403898759,858.6668347076687,859.1963065796365,731.2209514337809
1533058061.849,966.3500539097397,862.1434535978577,852.9231932591553,842.3961591236904,945.7530250290072
1533058061.853,1017.8254693570194,873.9528923954044,860.3077550922425,871.1992205899993,743.3064810210509
1533058061.857,1029.5274768530403,868.0511964064615,858.6668347076687,921.5996629578375,840.0030940935964
1533058061.861,952.3143536821208,850.334014800311,848.8204721952156,912.0002808684687,882.299353555445
1533058061.865,891.4754154472797,856.235710789254,852.1023129643633,875.9964540355825,800.7204817945743
1533058061.869,910.1928770686793,873.9528923954044,840.6150300673364,866.3970719462137,704.0300569092215
1533058061.873,1010.8100152316407,894.6209219960264,839.3841297276535,907.198132224683,450.2153710149732
1533058061.877,1034.2044462699594,891.6700740015549,843.0768307467022,950.397809225944,815.8258467318636
1533058061.881,999.1080077356198,873.9528923954044,845.5386314260679,950.397809225944,867.1939886181557
1533058061.8839998,992.0877616333795,909.3872556077054,856.6150540731938,938.3998104137836,767.4837283827836
1533058061.8879998,978.0520614057607,935.9569811972701,846.3586715158499,943.1970438593668,800.7204817945743
1533058061.8920002,1055.2651845766802,959.5758587923638,848.8204721952156,947.9991925031525,728.2011160837616
1533058061.8960001,1139.49855384984,992.0533271905324,848.8204721952156,981.5994874150446,664.7474446101994
1533058061.9,1090.3616231110198,962.5327536064958,843.4868507915932,1010.3976336831511,791.6547875573236
1533058061.904,1024.8457154592597,906.4303607935731,849.6405122849975,938.3998104137836,924.6018012044865
1533058061.908,961.6730844928206,879.8606352040082,843.8977110414942,890.397984768737,658.7077739101608
1533058061.9120002,961.6730844928206,885.7623311929511,836.1022889585058,895.2001334125226,764.4577048455716
1533058061.9160001,1029.5274768530403,921.1966944052521,831.9995678945663,902.3959835808975,867.1939886181557
1533058061.92,996.7695230271603,918.2397995911195,824.615006061479,904.7995155018915,371.65633460412175
1533058061.9229999,931.2536153754,906.4303607935731,826.2559264460529,897.5987501353143,537.8401016630753
1533058061.927,898.4956615495199,888.7192260070834,828.7177271254186,851.9955412130593,924.6018012044865
1533058061.931,910.1928770686793,882.8114831984797,832.8204481893582,835.1953937571132,960.8645781534891
1533058061.935,961.6730844928206,879.8606352040082,852.9231932591553,899.9973668581058,855.1084590308857
1533058061.939,954.6528383905803,873.9528923954044,857.8459544128767,921.5996629578375,707.0498922592409
1533058061.9429998,898.4956615495199,868.0511964064615,852.5123330092542,895.2001334125226,824.8915409691143
1533058061.947,849.3587308106999,847.3831668058396,853.7432333489371,871.1992205899993,936.6873307917565
1533058061.951,872.7579538258801,847.3831668058396,855.384153733511,871.1992205899993,982.0158019780098
1533058061.955,949.9710769967996,865.0943015923292,857.4359343679857,892.7966014915286,1081.726062213382
1533058061.9589999,949.9710769967996,865.0943015923292,847.5895718555328,890.397984768737,1275.1069119840874
1533058061.9629998,886.7984460303607,879.8606352040082,848.8204721952156,883.1972194021598,1117.982650975192
1533058061.966,840.0,882.8114831984797,850.4613925797895,856.7976898568448,568.0570197248467
1533058061.97,868.0761924320994,847.3831668058396,852.9231932591553,827.9995435887383,664.7474446101994
1533058061.974,928.9151306669405,832.6168331941604,863.1795758164992,842.3961591236904,994.1013315652799
1533058061.978,914.87463846246,832.6168331941604,847.5895718555328,875.9964540355825,1130.068180562462
1533058061.982,886.7984460303607,838.5245760027642,840.2050100224454,875.9964540355825,864.1741532681364
1533058061.986,877.4397152196608,832.6168331941604,848.8204721952156,849.5969244902676,858.128294380905
1533058061.99,891.4754154472797,832.6168331941604,845.127771176167,854.3990731340533,1030.35792032709
1533058061.994,975.7087847204394,841.4754239972358,851.6922929194724,914.3988975912603,704.0300569092215
1533058061.998,1017.8254693570194,868.0511964064615,847.1795518106418,950.397809225944,495.53765401403393
1533058062.002,973.3703000119799,873.9528923954044,847.9995919004238,933.597661769998,722.1614453837228
1533058062.006,919.5563998562407,862.1434535978577,853.3332133040462,909.5967489474747,982.0158019780098
1533058062.0089998,945.2941075798806,865.0943015923292,843.4868507915932,878.3999859565765,619.4251616111387
1533058062.0129998,1050.5834231828994,871.002044400933,850.4613925797895,926.3968964034208,438.1298414277032
1533058062.0170002,1085.6846536941007,879.8606352040082,857.0259143230949,986.3967208606279,426.0443118404332
1533058062.0210001,1038.8862076637402,888.7192260070834,850.4613925797895,952.7964259487356,498.5636775512459
1533058062.025,968.6885386181992,876.9037403898759,850.8714126246804,931.1990450472064,522.734736725786
1533058062.029,938.2738614776403,879.8606352040082,844.717751131276,909.5967489474747,740.2866456710316
1533058062.033,992.0877616333795,879.8606352040082,850.8714126246804,902.3959835808975,918.5621305044477
1533058062.0370002,1022.5072307508001,885.7623311929511,854.1540935988381,938.3998104137836,404.8930880159125
1533058062.0410001,994.4310383187006,909.3872556077054,845.127771176167,947.9991925031525,673.8131388474501
1533058062.045,968.6885386181992,885.7623311929511,836.9231692532978,890.397984768737,1057.555003038842
1533058062.0479999,935.9353767691807,879.8606352040082,831.9995678945663,859.1963065796365,930.6476600917177
1533058062.052,964.0115692012802,882.8114831984797,831.9995678945663,854.3990731340533,936.6873307917565
1533058062.056,1003.7897691294005,873.9528923954044,829.1277471703096,868.7956886690052,997.1211669152992
1533058062.06,940.6123461860999,865.0943015923292,825.4358863562709,883.1972194021598,697.9841980219902
1533058062.064,898.4956615495199,871.002044400933,825.02586631138,866.3970719462137,782.589093320073
1533058062.0679998,882.1166846365799,894.6209219960264,821.7431853372223,832.7967770343215,975.9699430907785
1533058062.072,893.8186921326009,897.5717699904978,822.9740856769051,784.7998665874774,815.8258467318636
1533058062.076,964.0115692012802,897.5717699904978,827.0768067408447,832.7967770343215,852.0886236808664
1533058062.08,931.2536153754,885.7623311929511,817.2304442283918,859.1963065796365,975.9699430907785
1533058062.0839999,875.0964385343397,873.9528923954044,823.7949659716971,837.5989256781072,924.6018012044865
1533058062.0879998,875.0964385343397,897.5717699904978,829.1277471703096,813.5980128555839,966.9042488535279
1533058062.091,928.9151306669405,933.0061332027988,818.0513245231837,808.7958642117982,740.2866456710316
1533058062.095,1015.4869846485599,947.766419994817,821.7431853372223,873.597837312791,495.53765401403393
1533058062.099,996.7695230271603,930.0492383886665,825.4358863562709,892.7966014915286,646.6222443228908
1533058062.103,917.2131231709195,927.0983903941949,824.204986016588,880.7986026793682,1066.6206972760926
1533058062.107,893.8186921326009,924.1475423997235,816.4104041386098,861.5998385006305,906.4766009171777
1533058062.111,931.2536153754,903.4795127991016,824.204986016588,839.9975424008987,525.7545720758053
1533058062.115,982.7290308226798,909.3872556077054,845.9486514709589,885.5958361249513,852.0886236808664
1533058062.119,952.3143536821208,900.5286648046301,836.5123090033968,916.7975143140519,546.905795900326
1533058062.123,919.5563998562407,903.4795127991016,834.0513485290411,892.7966014915286,151.07840212166417
1533058062.127,910.1928770686793,912.3381036021768,843.0768307467022,890.397984768737,305.1828277805404
1533058062.131,917.2131231709195,897.5717699904978,841.8459304070193,887.9993680459454,344.4592518923697
1533058062.1339998,989.74927692492,912.3381036021768,857.0259143230949,904.7995155018915,513.6690424885353
1533058062.1379998,989.74927692492,924.1475423997235,860.7177751371335,940.7984271365752,912.5162716172164
1533058062.1420002,928.9151306669405,906.4303607935731,852.9231932591553,931.1990450472064,1127.0483452124427
1533058062.1460001,912.5361537540005,927.0983903941949,845.127771176167,871.1992205899993,849.0626001436543
1533058062.15,924.2333692731598,938.9078291917418,849.2304922401066,844.7996910446844,966.9042488535279
1533058062.154,987.4107922164604,930.0492383886665,857.0259143230949,875.9964540355825,1081.726062213382
1533058062.158,1001.4464924440794,935.9569811972701,855.384153733511,907.198132224683,1157.265263274214
1533058062.1620002,959.3298078074995,930.0492383886665,851.6922929194724,892.7966014915286,1187.4821813359854
1533058062.1660001,928.9151306669405,927.0983903941949,842.2559504519103,871.1992205899993,1166.3309575114647
1533058062.17,924.2333692731598,935.9569811972701,838.5640896378717,849.5969244902676,1229.7846289850268
1533058062.1729999,987.4107922164604,950.7172679892885,850.8714126246804,875.9964540355825,930.6476600917177
1533058062.177,1013.1484999401002,971.3852975899105,845.9486514709589,947.9991925031525,803.7403171445936
1533058062.181,956.9913230990398,974.3421924040427,839.7949899775546,945.5956605821584,833.957235206365
1533058062.185,924.2333692731598,974.3421924040427,840.6150300673364,912.0002808684687,1160.2850986242333
1533058062.189,945.2941075798806,974.3421924040427,834.0513485290411,887.9993680459454,1087.7719211006133
1533058062.1929998,999.1080077356198,968.434449595439,843.8977110414942,897.5987501353143,710.0697276092602
1533058062.197,1010.8100152316407,950.7172679892885,850.4613925797895,943.1970438593668,1039.4236145643406
1533058062.201,956.9913230990398,947.766419994817,836.5123090033968,931.1990450472064,1148.1995690369633
1533058062.205,926.5718539816194,959.5758587923638,834.871388618823,878.3999859565765,770.503563732803
1533058062.2089999,893.8186921326009,950.7172679892885,838.9741096827626,830.39816031153,652.6619150229294
1533058062.2129998,926.5718539816194,941.8647240058741,845.5386314260679,844.7996910446844,676.8329741974695
1533058062.216,994.4310383187006,941.8647240058741,850.0513725348985,916.7975143140519,794.674622907343
1533058062.22,964.0115692012802,953.6741628034206,852.5123330092542,931.1990450472064,1250.9358528095474
1533058062.224,926.5718539816194,956.6250107978923,849.2304922401066,926.3968964034208,1099.8574506878833
1533058062.228,919.5563998562407,927.0983903941949,843.4868507915932,916.7975143140519,713.0957511464721
1533058062.232,975.7087847204394,918.2397995911195,855.384153733511,907.198132224683,797.700646444555
1533058062.236,1029.5274768530403,947.766419994817,859.0768547525596,943.1970438593668,806.760152494613
1533058062.24,1003.7897691294005,974.3421924040427,855.795013983412,952.7964259487356,918.5621305044477
1533058062.244,966.3500539097397,1000.9119179936076,854.97413368862,931.1990450472064,746.3325045582629
1533058062.248,938.2738614776403,1012.7213567911543,847.5895718555328,907.198132224683,704.0300569092215
1533058062.252,982.7290308226798,1003.8627659880791,853.7432333489371,892.7966014915286,1060.5748383888613
1533058062.255,1059.9421539935993,1000.9119179936076,860.7177751371335,931.1990450472064,1127.0483452124427
1533058062.2589998,1017.8254693570194,989.1024791960609,847.1795518106418,931.1990450472064,939.7133543289684
1533058062.2629998,956.9913230990398,989.1024791960609,851.6922929194724,897.5987501353143,1087.7719211006133
1533058062.2670002,928.9151306669405,992.0533271905324,861.1277951820244,883.1972194021598,1063.5946737388806
1533058062.2710001,954.6528383905803,989.1024791960609,862.7687155665983,885.5958361249513,1051.5091441516106
1533058062.275,1034.2044462699594,989.1024791960609,870.1541176046956,947.9991925031525,595.2541024365987
1533058062.279,994.4310383187006,983.200783207118,871.7950379892694,979.1959554940505,779.5692579700536
1533058062.283,910.1928770686793,983.200783207118,863.5895958613902,955.1999578697297,1093.811591800652
1533058062.2870002,896.1571768410604,1003.8627659880791,860.3077550922425,914.3988975912603,655.6817503729487
1533058062.2910001,945.2941075798806,1015.6782516052866,854.1540935988381,902.3959835808975,915.5422951544284
1533058062.295,999.1080077356198,1000.9119179936076,851.2822728745814,945.5956605821584,1238.8503232222774
1533058062.2979999,975.7087847204394,1000.9119179936076,847.9995919004238,969.5965734046817,1051.5091441516106
1533058062.302,933.5921000838596,1006.8196608022114,847.5895718555328,955.1999578697297,691.9445273219515
1533058062.306,912.5361537540005,995.0102220046647,852.9231932591553,926.3968964034208,462.30090060224325
1533058062.31,949.9710769967996,986.1516312015895,852.9231932591553,923.9982796806291,546.905795900326
1533058062.314,1015.4869846485599,971.3852975899105,860.3077550922425,962.3958080381045,740.2866456710316
1533058062.3179998,1013.1484999401002,974.3421924040427,862.7687155665983,1000.7982515937823,876.2596828554064
1533058062.322,947.6325922883401,980.2438883929857,864.4104761561821,1005.5954850393655,888.3452124426764
1533058062.326,903.1774229433006,959.5758587923638,858.6668347076687,979.1959554940505,719.1354218465109
1533058062.33,933.5921000838596,935.9569811972701,852.5123330092542,919.1961310368436,426.0443118404332
1533058062.3339999,1008.4667385463196,947.766419994817,862.3586955217073,931.1990450472064,773.5233990828223
1533058062.3379998,1008.4667385463196,938.9078291917418,861.9486754768163,979.1959554940505,725.1812807337421
1533058062.341,971.0318153035204,915.2889515966483,857.0259143230949,983.9981041378362,555.9714901375767
1533058062.345,935.9353767691807,912.3381036021768,857.4359343679857,969.5965734046817,486.4781479639759
1533058062.349,914.87463846246,897.5717699904978,855.384153733511,935.9962784927895,574.102878612078
1533058062.353,978.0520614057607,888.7192260070834,856.2050340283029,943.1970438593668,1039.4236145643406
1533058062.357,1029.5274768530403,903.4795127991016,851.6922929194724,991.1988695044134,945.7530250290072
1533058062.361,996.7695230271603,885.7623311929511,849.2304922401066,991.1988695044134,997.1211669152992
1533058062.365,954.6528383905803,859.1926056033863,856.6150540731938,928.7955131262123,1136.1140394496933
1533058062.369,931.2536153754,862.1434535978577,852.1023129643633,904.7995155018915,725.1812807337421
1533058062.373,989.74927692492,882.8114831984797,857.8459544128767,959.9971913153129,676.8329741974695
1533058062.377,1052.9266998682206,894.6209219960264,867.6923169253298,988.7953375834194,1084.7458975634013
1533058062.38,999.1080077356198,891.6700740015549,861.1277951820244,976.797338771259,975.9699430907785
1533058062.3839998,952.3143536821208,879.8606352040082,853.7432333489371,943.1970438593668,667.7672799602188
1533058062.3879998,952.3143536821208,868.0511964064615,848.4104521503247,912.0002808684687,840.0030940935964
1533058062.3920002,1015.4869846485599,891.6700740015549,854.97413368862,945.5956605821584,1121.008674512404
1533058062.3960001,1059.9421539935993,888.7192260070834,854.97413368862,967.1979566818901,827.9113763191336
1533058062.4,1022.5072307508001,873.9528923954044,850.8714126246804,959.9971913153129,749.3523399082823
1533058062.404,980.3905461142202,873.9528923954044,847.1795518106418,969.5965734046817,806.760152494613
1533058062.408,940.6123461860999,868.0511964064615,842.2559504519103,909.5967489474747,407.9129233659318
1533058062.4120002,964.0115692012802,859.1926056033863,849.6405122849975,868.7956886690052,604.3197966738494
1533058062.4160001,1015.4869846485599,844.4262719917073,850.0513725348985,923.9982796806291,571.076855074866
1533058062.42,996.7695230271603,844.4262719917073,839.3841297276535,950.397809225944,525.7545720758053
1533058062.4229999,961.6730844928206,862.1434535978577,848.4104521503247,912.0002808684687,782.589093320073
1533058062.427,938.2738614776403,853.2848627947825,855.795013983412,897.5987501353143,1042.44344991436
1533058062.431,971.0318153035204,853.2848627947825,853.7432333489371,909.5967489474747,1377.8431957566715
1533058062.435,1045.9064537659804,862.1434535978577,859.4868747974506,967.1979566818901,1263.0213823968174
1533058062.439,1034.2044462699594,847.3831668058396,851.6922929194724,998.3996348709907,583.1685728493287
1533058062.4429998,999.1080077356198,876.9037403898759,856.6150540731938,1003.1968683165738,447.19553566495387
1533058062.447,949.9710769967996,876.9037403898759,859.0768547525596,969.5965734046817,552.9516547875573
1533058062.451,968.6885386181992,844.4262719917073,846.3586715158499,945.5956605821584,562.017349024808
1533058062.455,1073.9826461980797,871.002044400933,853.7432333489371,993.5974862272051,758.4180341455329
1533058062.4589999,1071.6441614896203,888.7192260070834,862.7687155665983,1036.797163228466,1078.7062268633626
1533058062.4629998,1020.1687460423406,879.8606352040082,855.384153733511,1041.5993118722517,743.3064810210509
1533058062.466,978.0520614057607,879.8606352040082,843.0768307467022,991.1988695044134,389.7877230786231
1533058062.47,989.74927692492,879.8606352040082,846.7686915607409,940.7984271365752,565.0371843748273
1533058062.474,1069.3056767811606,888.7192260070834,861.5386554319253,976.797338771259,951.7988839162384
1533058062.478,1081.0028923003201,885.7623311929511,857.4359343679857,1027.1977811390973,951.7988839162384
1533058062.482,1006.12825383786,873.9528923954044,851.6922929194724,998.3996348709907,694.9643626719708
1533058062.486,956.9913230990398,882.8114831984797,850.4613925797895,947.9991925031525,833.957235206365
1533058062.49,964.0115692012802,876.9037403898759,850.8714126246804,914.3988975912603,598.273937786618
1533058062.494,1017.8254693570194,873.9528923954044,871.3841777393684,950.397809225944,691.9445273219515
1533058062.498,1036.5477229552805,850.334014800311,868.1023369702208,1010.3976336831511,1066.6206972760926
1533058062.502,982.7290308226798,844.4262719917073,859.8977350473516,995.9961029499966,1042.44344991436
1533058062.505,940.6123461860999,876.9037403898759,866.4614165856469,947.9991925031525,849.0626001436543
1533058062.5089998,921.8948845647002,891.6700740015549,864.8204962010731,933.597661769998,951.7988839162384
1533058062.5129998,971.0318153035204,888.7192260070834,868.9232172650127,952.7964259487356,764.4577048455716
1533058062.5170002,1015.4869846485599,873.9528923954044,863.5895958613902,983.9981041378362,761.4378694955523
1533058062.5210001,968.6885386181992,885.7623311929511,860.7177751371335,988.7953375834194,1208.633405160506
1533058062.525,912.5361537540005,871.002044400933,861.1277951820244,955.1999578697297,1136.1140394496933
1533058062.529,919.5563998562407,856.235710789254,852.1023129643633,923.9982796806291,707.0498922592409
1533058062.533,994.4310383187006,882.8114831984797,856.2050340283029,933.597661769998,571.076855074866
1533058062.5370002,1024.8457154592597,882.8114831984797,853.3332133040462,976.797338771259,812.8060113818443
1533058062.5410001,994.4310383187006,865.0943015923292,841.8459304070193,983.9981041378362,1181.436322448754
1533058062.545,966.3500539097397,879.8606352040082,850.4613925797895,976.797338771259,1202.5875462732747
1533058062.5479999,956.9913230990398,879.8606352040082,847.9995919004238,955.1999578697297,861.1481297309243
1533058062.552,1015.4869846485599,894.6209219960264,852.9231932591553,955.1999578697297,685.8986684347201
1533058062.556,1069.3056767811606,918.2397995911195,859.8977350473516,988.7953375834194,997.1211669152992
1533058062.56,1024.8457154592597,912.3381036021768,857.0259143230949,1010.3976336831511,1151.2194043869827
1533058062.564,971.0318153035204,924.1475423997235,854.97413368862,964.7993399590986,966.9042488535279
1533058062.5679998,935.9353767691807,918.2397995911195,854.97413368862,899.9973668581058,927.6278247416984
1533058062.572,973.3703000119799,906.4303607935731,860.7177751371335,945.5956605821584,930.6476600917177
1533058062.576,1029.5274768530403,906.4303607935731,853.7432333489371,993.5974862272051,646.6222443228908
1533058062.58,987.4107922164604,888.7192260070834,859.0768547525596,967.1979566818901,728.2011160837616
1533058062.5839999,942.9508308945594,888.7192260070834,863.9996159062812,962.3958080381045,707.0498922592409
1533058062.5870001,912.5361537540005,885.7623311929511,850.0513725348985,935.9962784927895,423.02447649041386
1533058062.591,973.3703000119799,900.5286648046301,848.4104521503247,938.3998104137836,685.8986684347201
1533058062.595,1050.5834231828994,897.5717699904978,859.4868747974506,983.9981041378362,900.4307420299464
1533058062.599,1024.8457154592597,873.9528923954044,855.795013983412,1007.9990169603595,912.5162716172164
1533058062.603,985.0675155311393,873.9528923954044,855.795013983412,993.5974862272051,634.530526548428
1533058062.607,971.0318153035204,876.9037403898759,858.6668347076687,955.1999578697297,749.3523399082823
1533058062.611,999.1080077356198,882.8114831984797,851.6922929194724,926.3968964034208,1084.7458975634013
1533058062.615,1076.3211309065393,882.8114831984797,855.384153733511,979.1959554940505,764.4577048455716
1533058062.619,1076.3211309065393,882.8114831984797,861.1277951820244,1007.9990169603595,713.0957511464721
1533058062.623,1027.1889921445809,897.5717699904978,858.6668347076687,974.3987220484673,879.2795182054257
1533058062.627,1001.4464924440794,894.6209219960264,852.5123330092542,945.5956605821584,985.0356373280292
1533058062.63,1006.12825383786,882.8114831984797,856.2050340283029,914.3988975912603,963.8844135035084
1533058062.6339998,1078.6644075918605,873.9528923954044,863.5895958613902,943.1970438593668,833.957235206365
1533058062.6379998,1078.6644075918605,838.5245760027642,858.2559744577677,991.1988695044134,840.0030940935964
1533058062.6420002,1001.4464924440794,838.5245760027642,853.3332133040462,1003.1968683165738,752.3721752583016
1533058062.6460001,942.9508308945594,847.3831668058396,848.8204721952156,957.5985745925213,640.5763854356594
1533058062.65,959.3298078074995,838.5245760027642,843.0768307467022,912.0002808684687,840.0030940935964
1533058062.654,1022.5072307508001,868.0511964064615,851.6922929194724,935.9962784927895,933.6674954417371
1533058062.658,1027.1889921445809,868.0511964064615,846.3586715158499,957.5985745925213,453.2413945521852
1533058062.6620002,992.0877616333795,853.2848627947825,845.5386314260679,945.5956605821584,595.2541024365987
1533058062.6660001,954.6528383905803,859.1926056033863,858.6668347076687,926.3968964034208,800.7204817945743
1533058062.67,938.2738614776403,868.0511964064615,845.5386314260679,914.3988975912603,743.3064810210509
1533058062.6729999,1008.4667385463196,871.002044400933,848.8204721952156,943.1970438593668,734.2469749709928
1533058062.677,1043.567969057521,862.1434535978577,848.4104521503247,979.1959554940505,749.3523399082823
1533058062.681,982.7290308226798,862.1434535978577,838.5640896378717,972.0001053256758,806.760152494613
1533058062.685,931.2536153754,871.002044400933,850.0513725348985,943.1970438593668,815.8258467318636
1533058062.689,896.1571768410604,882.8114831984797,847.9995919004238,897.5987501353143,806.760152494613
1533058062.6929998,940.6123461860999,885.7623311929511,854.1540935988381,890.397984768737,924.6018012044865
1533058062.697,1013.1484999401002,882.8114831984797,854.97413368862,955.1999578697297,673.8131388474501
1533058062.701,989.74927692492,888.7192260070834,850.8714126246804,983.9981041378362,377.69600530416045
1533058062.705,954.6528383905803,900.5286648046301,849.6405122849975,945.5956605821584,631.5106911984087
1533058062.7089999,954.6528383905803,909.3872556077054,841.4359103621283,909.5967489474747,852.0886236808664
1533058062.7120001,1013.1484999401002,953.6741628034206,846.3586715158499,909.5967489474747,613.3793027239074
1533058062.716,1064.62391538738,962.5327536064958,849.2304922401066,950.397809225944,688.9185037847395
1533058062.72,1013.1484999401002,953.6741628034206,844.307731086385,959.9971913153129,679.8589977346815
1533058062.724,954.6528383905803,986.1516312015895,854.5641136437291,909.5967489474747,613.3793027239074
1533058062.728,933.5921000838596,980.2438883929857,858.6668347076687,892.7966014915286,927.6278247416984
1533058062.732,982.7290308226798,956.6250107978923,854.97413368862,904.7995155018915,1009.2066965025692
1533058062.736,1052.9266998682206,935.9569811972701,863.9996159062812,962.3958080381045,942.7331896789877
1533058062.74,1008.4667385463196,927.0983903941949,865.230516245964,995.9961029499966,882.299353555445
1533058062.744,961.6730844928206,927.0983903941949,850.8714126246804,976.797338771259,592.2280788993867
1533058062.748,966.3500539097397,933.0061332027988,843.8977110414942,959.9971913153129,444.17570031493455
1533058062.752,1015.4869846485599,959.5758587923638,852.1023129643633,959.9971913153129,888.3452124426764
1533058062.755,1092.7001078194794,971.3852975899105,858.2559744577677,981.5994874150446,1084.7458975634013
1533058062.7589998,1069.3056767811606,980.2438883929857,850.4613925797895,988.7953375834194,821.871705619095
1533058062.7629998,1008.4667385463196,980.2438883929857,841.8459304070193,981.5994874150446,858.128294380905
1533058062.7670002,968.6885386181992,968.434449595439,837.7432093430797,935.9962784927895,894.3910713299077
1533058062.7710001,959.3298078074995,959.5758587923638,841.4359103621283,875.9964540355825,782.589093320073
1533058062.775,980.3905461142202,962.5327536064958,850.0513725348985,923.9982796806291,1060.5748383888613
1533058062.779,952.3143536821208,968.434449595439,834.0513485290411,957.5985745925213,625.4710204983701
1533058062.783,898.4956615495199,950.7172679892885,837.3331892981888,928.7955131262123,271.94607436874963
1533058062.7870002,856.3789769129401,927.0983903941949,851.2822728745814,885.5958361249513,625.4710204983701
1533058062.7910001,875.0964385343397,918.2397995911195,847.5895718555328,854.3990731340533,960.8645781534891
1533058062.795,954.6528383905803,918.2397995911195,854.1540935988381,897.5987501353143,849.0626001436543
1533058062.7979999,961.6730844928206,885.7623311929511,861.1277951820244,935.9962784927895,791.6547875573236
1533058062.802,919.5563998562407,879.8606352040082,857.4359343679857,919.1961310368436,903.4505773799657
1533058062.806,893.8186921326009,906.4303607935731,852.5123330092542,866.3970719462137,1214.6730758605447
1533058062.81,889.1369307388202,891.6700740015549,847.1795518106418,825.5960116677443,1139.1338747997127
1533058062.814,945.2941075798806,888.7192260070834,854.5641136437291,861.5998385006305,991.0814962152605
1533058062.8179998,959.3298078074995,888.7192260070834,848.8204721952156,909.5967489474747,1111.9429802751533
1533058062.822,903.1774229433006,885.7623311929511,841.4359103621283,902.3959835808975,782.589093320073
1533058062.826,854.0404922044805,891.6700740015549,853.7432333489371,890.397984768737,821.871705619095
1533058062.83,858.7174616213996,888.7192260070834,851.6922929194724,844.7996910446844,942.7331896789877
1533058062.8339999,921.8948845647002,885.7623311929511,861.1277951820244,849.5969244902676,855.1084590308857
1533058062.8370001,933.5921000838596,876.9037403898759,866.051396540756,907.198132224683,1199.5677109232554
1533058062.841,882.1166846365799,888.7192260070834,851.6922929194724,907.198132224683,1392.948560693961
1533058062.845,842.3384847084595,894.6209219960264,834.0513485290411,895.2001334125226,770.503563732803
1533058062.849,847.0202461022402,897.5717699904978,831.5895478496753,868.7956886690052,519.7149013757667
1533058062.853,910.1928770686793,909.3872556077054,845.9486514709589,854.3990731340533,903.4505773799657
1533058062.857,933.5921000838596,903.4795127991016,838.1540695929807,871.1992205899993,882.299353555445
1533058062.861,893.8186921326009,876.9037403898759,832.4104281444672,878.3999859565765,580.1425493121167
1533058062.865,861.0607383067207,885.7623311929511,843.4868507915932,861.5998385006305,562.017349024808
1533058062.869,868.0761924320994,915.2889515966483,840.2050100224454,851.9955412130593,507.6293717884966
1533058062.873,952.3143536821208,933.0061332027988,842.6668107018112,868.7956886690052,471.36659483949387
1533058062.877,994.4310383187006,933.0061332027988,849.2304922401066,909.5967489474747,652.6619150229294
1533058062.88,954.6528383905803,930.0492383886665,848.8204721952156,935.9962784927895,1244.889993922316
1533058062.8839998,938.2738614776403,924.1475423997235,837.3331892981888,916.7975143140519,963.8844135035084
1533058062.8879998,924.2333692731598,897.5717699904978,830.3586475099925,890.397984768737,607.3396320238687
1533058062.8920002,982.7290308226798,879.8606352040082,843.0768307467022,931.1990450472064,734.2469749709928
1533058062.8960001,1057.6036692851396,909.3872556077054,847.1795518106418,981.5994874150446,836.9770705563843
1533058062.9,1015.4869846485599,944.8155720003454,843.4868507915932,943.1970438593668,843.0229294436157
1533058062.904,982.7290308226798,983.200783207118,842.2559504519103,935.9962784927895,818.8518702690757
1533058062.908,938.2738614776403,992.0533271905324,838.9741096827626,919.1961310368436,833.957235206365
1533058062.9120002,949.9710769967996,977.2930403985142,849.2304922401066,873.597837312791,858.128294380905
1533058062.9160001,1017.8254693570194,1006.8196608022114,859.8977350473516,912.0002808684687,897.410906679927
1533058062.919,971.0318153035204,1027.487690402833,844.717751131276,923.9982796806291,555.9714901375767
1533058062.9229999,907.8543923602198,1039.2971292003801,850.0513725348985,873.597837312791,456.26122990220455
1533058062.927,907.8543923602198,1036.3462812059086,857.4359343679857,851.9955412130593,477.41245372672523
1533058062.931,928.9151306669405,997.9610699991362,854.1540935988381,854.3990731340533,670.7933034974308
1533058062.935,985.0675155311393,983.200783207118,859.8977350473516,890.397984768737,982.0158019780098
1533058062.939,992.0877616333795,956.6250107978923,848.8204721952156,921.5996629578375,870.213823968175
1533058062.9429998,928.9151306669405,941.8647240058741,845.5386314260679,912.0002808684687,531.8004309630367
1533058062.947,856.3789769129401,944.8155720003454,843.8977110414942,883.1972194021598,749.3523399082823
1533058062.951,854.0404922044805,918.2397995911195,842.6668107018112,866.3970719462137,746.3325045582629
1533058062.955,952.3143536821208,918.2397995911195,862.3586955217073,897.5987501353143,625.4710204983701
1533058062.9589999,996.7695230271603,924.1475423997235,860.3077550922425,943.1970438593668,565.0371843748273
1533058062.9620001,938.2738614776403,918.2397995911195,850.0513725348985,952.7964259487356,589.2082435493674
1533058062.966,917.2131231709195,930.0492383886665,854.1540935988381,933.597661769998,918.5621305044477
1533058062.97,952.3143536821208,924.1475423997235,846.7686915607409,919.1961310368436,897.410906679927
1533058062.974,1008.4667385463196,927.0983903941949,848.8204721952156,943.1970438593668,840.0030940935964
1533058062.978,1029.5274768530403,959.5758587923638,850.4613925797895,981.5994874150446,1124.0285098624233
1533058062.982,985.0675155311393,947.766419994817,842.6668107018112,979.1959554940505,586.188408199348
1533058062.986,949.9710769967996,921.1966944052521,830.7695077598934,935.9962784927895,471.36659483949387
1533058062.99,938.2738614776403,924.1475423997235,827.8976870356367,904.7995155018915,707.0498922592409
1533058062.994,1022.5072307508001,933.0061332027988,845.9486514709589,935.9962784927895,447.19553566495387
1533058062.998,1062.2854306789204,930.0492383886665,852.5123330092542,988.7953375834194,676.8329741974695
1533058063.002,987.4107922164604,918.2397995911195,849.6405122849975,1000.7982515937823,1081.726062213382
1533058063.005,971.0318153035204,903.4795127991016,845.127771176167,979.1959554940505,1024.3182496270513
1533058063.0089998,961.6730844928206,888.7192260070834,837.3331892981888,935.9962784927895,728.2011160837616
1533058063.0129998,973.3703000119799,906.4303607935731,844.717751131276,940.7984271365752,555.9714901375767
1533058063.0170002,1003.7897691294005,903.4795127991016,843.4868507915932,979.1959554940505,800.7204817945743
1533058063.0210001,933.5921000838596,909.3872556077054,845.127771176167,967.1979566818901,966.9042488535279
1533058063.025,865.7377077236398,930.0492383886665,854.1540935988381,940.7984271365752,740.2866456710316
1533058063.029,877.4397152196608,918.2397995911195,844.307731086385,912.0002808684687,752.3721752583016
1533058063.033,959.3298078074995,918.2397995911195,846.3586715158499,914.3988975912603,1048.4893088015913
1533058063.0370002,1034.2044462699594,909.3872556077054,850.8714126246804,957.5985745925213,876.2596828554064
1533058063.0410001,975.7087847204394,903.4795127991016,845.127771176167,974.3987220484673,625.4710204983701
1533058063.044,919.5563998562407,915.2889515966483,839.3841297276535,940.7984271365752,471.36659483949387
1533058063.0479999,893.8186921326009,912.3381036021768,834.4613685739321,883.1972194021598,734.2469749709928
1533058063.052,928.9151306669405,930.0492383886665,843.8977110414942,873.597837312791,1006.1868611525499
1533058063.056,1001.4464924440794,933.0061332027988,847.5895718555328,923.9982796806291,782.589093320073
1533058063.06,964.0115692012802,882.8114831984797,836.9231692532978,931.1990450472064,957.8385546162772
1533058063.064,914.87463846246,882.8114831984797,843.4868507915932,904.7995155018915,1175.3966517487154
1533058063.0679998,889.1369307388202,888.7192260070834,846.3586715158499,883.1972194021598,994.1013315652799
1533058063.072,891.4754154472797,891.6700740015549,847.1795518106418,885.5958361249513,991.0814962152605
1533058063.076,928.9151306669405,921.1966944052521,853.3332133040462,928.7955131262123,1326.4750538703795
1533058063.08,919.5563998562407,918.2397995911195,851.2822728745814,931.1990450472064,1347.6262776949002
1533058063.0839999,854.0404922044805,885.7623311929511,845.5386314260679,909.5967489474747,960.8645781534891
1533058063.0870001,814.2622922763602,862.1434535978577,839.7949899775546,880.7986026793682,598.273937786618
1533058063.091,882.1166846365799,862.1434535978577,845.5386314260679,885.5958361249513,761.4378694955523
1533058063.095,973.3703000119799,882.8114831984797,862.3586955217073,964.7993399590986,1444.3167025802531
1533058063.099,954.6528383905803,879.8606352040082,870.5641376495865,1000.7982515937823,1537.9811039283938
1533058063.103,891.4754154472797,879.8606352040082,859.8977350473516,959.9971913153129,697.9841980219902
1533058063.107,854.0404922044805,879.8606352040082,851.2822728745814,895.2001334125226,486.4781479639759
1533058063.111,886.7984460303607,879.8606352040082,857.4359343679857,871.1992205899993,1208.633405160506
1533058063.115,959.3298078074995,900.5286648046301,863.9996159062812,921.5996629578375,1172.3706282115033
1533058063.119,954.6528383905803,897.5717699904978,866.051396540756,957.5985745925213,861.1481297309243
1533058063.123,940.6123461860999,894.6209219960264,870.1541176046956,952.7964259487356,882.299353555445
1533058063.127,919.5563998562407,888.7192260070834,870.1541176046956,916.7975143140519,885.325377092657
1533058063.13,952.3143536821208,912.3381036021768,872.6150780790513,895.2001334125226,891.3650477926957
1533058063.1339998,1038.8862076637402,938.9078291917418,878.7687395724557,916.7975143140519,719.1354218465109
1533058063.1379998,1036.5477229552805,933.0061332027988,874.2559984636251,974.3987220484673,314.24852201779106
1533058063.1420002,973.3703000119799,930.0492383886665,880.4105001620395,972.0001053256758,395.8273937786618
1533058063.1460001,926.5718539816194,903.4795127991016,879.1795998223566,914.3988975912603,688.9185037847395
1533058063.15,924.2333692731598,897.5717699904978,863.1795758164992,883.1972194021598,713.0957511464721
1533058063.154,992.0877616333795,912.3381036021768,866.8714366305378,931.1990450472064,824.8915409691143
1533058063.158,1024.8457154592597,891.6700740015549,870.1541176046956,969.5965734046817,852.0886236808664
1533058063.1620002,975.7087847204394,882.8114831984797,863.1795758164992,933.597661769998,743.3064810210509
1533058063.1660001,926.5718539816194,915.2889515966483,868.1023369702208,892.7966014915286,867.1939886181557
1533058063.169,919.5563998562407,935.9569811972701,864.8204962010731,861.5998385006305,930.6476600917177
1533058063.1729999,994.4310383187006,953.6741628034206,866.4614165856469,895.2001334125226,843.0229294436157
1533058063.177,1041.2246923721998,953.6741628034206,863.5895958613902,943.1970438593668,849.0626001436543
1533058063.181,1001.4464924440794,953.6741628034206,856.2050340283029,940.7984271365752,725.1812807337421
1533058063.185,968.6885386181992,950.7172679892885,857.0259143230949,935.9962784927895,752.3721752583016
1533058063.189,938.2738614776403,930.0492383886665,850.8714126246804,892.7966014915286,861.1481297309243
1533058063.1929998,1001.4464924440794,947.766419994817,854.97413368862,883.1972194021598,948.7790485662191
1533058063.197,1043.567969057521,933.0061332027988,857.0259143230949,935.9962784927895,788.6349522073043
1533058063.201,952.3143536821208,912.3381036021768,849.6405122849975,907.198132224683,737.2668103210123
1533058063.205,900.8341462579795,924.1475423997235,853.3332133040462,871.1992205899993,978.9897784407979
1533058063.2089999,877.4397152196608,909.3872556077054,845.9486514709589,856.7976898568448,830.9373998563457
1533058063.2120001,917.2131231709195,927.0983903941949,849.2304922401066,859.1963065796365,707.0498922592409
1533058063.216,994.4310383187006,947.766419994817,853.3332133040462,921.5996629578375,800.7204817945743
1533058063.22,973.3703000119799,933.0061332027988,852.5123330092542,935.9962784927895,607.3396320238687
1533058063.224,952.3143536821208,933.0061332027988,857.0259143230949,902.3959835808975,604.3197966738494
1533058063.228,935.9353767691807,927.0983903941949,851.6922929194724,883.1972194021598,906.4766009171777
1533058063.232,964.0115692012802,909.3872556077054,852.5123330092542,875.9964540355825,1027.3380849770706
1533058063.236,1029.5274768530403,941.8647240058741,865.230516245964,902.3959835808975,782.589093320073
1533058063.24,980.3905461142202,971.3852975899105,875.076878758417,919.1961310368436,975.9699430907785
1533058063.244,928.9151306669405,956.6250107978923,874.2559984636251,887.9993680459454,1081.726062213382
1533058063.248,914.87463846246,956.6250107978923,873.4359583738432,842.3961591236904,897.410906679927
1533058063.2510002,938.2738614776403,980.2438883929857,876.3077790980999,847.198307767476,930.6476600917177
1533058063.255,1006.12825383786,1015.6782516052866,876.7177991429909,916.7975143140519,589.2082435493674
1533058063.2589998,971.0318153035204,1024.530795588701,866.8714366305378,940.7984271365752,504.6033482512846
1533058063.2629998,910.1928770686793,1030.438538397305,873.0250981239423,919.1961310368436,688.9185037847395
1533058063.2670002,879.7781999281203,1033.3893863917763,877.9486994826738,885.5958361249513,713.0957511464721
1533058063.2710001,903.1774229433006,1027.487690402833,869.3332373099037,866.3970719462137,764.4577048455716
1533058063.275,971.0318153035204,1009.7705087966829,872.6150780790513,916.7975143140519,803.7403171445936
1533058063.279,966.3500539097397,992.0533271905324,869.7432573547945,945.5956605821584,1042.44344991436
1533058063.283,931.2536153754,1000.9119179936076,865.6405362908549,926.3968964034208,1000.1410022653185
1533058063.2870002,891.4754154472797,1018.6290995997581,861.5386554319253,914.3988975912603,613.3793027239074
1533058063.2910001,914.87463846246,1030.438538397305,857.0259143230949,899.9973668581058,223.59776783247693
1533058063.294,1024.8457154592597,1036.3462812059086,863.1795758164992,916.7975143140519,619.4251616111387
1533058063.2979999,1050.5834231828994,1036.3462812059086,856.6150540731938,938.3998104137836,1021.2922260898392
1533058063.302,1006.12825383786,1036.3462812059086,853.7432333489371,914.3988975912603,824.8915409691143
1533058063.306,938.2738614776403,1036.3462812059086,852.5123330092542,875.9964540355825,1009.2066965025692
1533058063.31,924.2333692731598,1033.3893863917763,843.0768307467022,847.198307767476,761.4378694955523
1533058063.314,994.4310383187006,1027.487690402833,851.2822728745814,847.198307767476,568.0570197248467
1533058063.3179998,996.7695230271603,1015.6782516052866,855.795013983412,892.7966014915286,749.3523399082823
1533058063.322,914.87463846246,1009.7705087966829,856.2050340283029,909.5967489474747,688.9185037847395
1533058063.326,875.0964385343397,1009.7705087966829,850.4613925797895,880.7986026793682,903.4505773799657
1533058063.33,893.8186921326009,1003.8627659880791,846.7686915607409,847.198307767476,1226.7647936350074
1533058063.3339999,945.2941075798806,992.0533271905324,857.0259143230949,866.3970719462137,1389.9287253439416
1533058063.3370001,959.3298078074995,995.0102220046647,855.795013983412,899.9973668581058,1142.1598983369247
1533058063.341,914.87463846246,1000.9119179936076,857.0259143230949,885.5958361249513,1009.2066965025692
1533058063.345,870.4194691174206,1000.9119179936076,857.8459544128767,856.7976898568448,991.0814962152605
1533058063.349,861.0607383067207,1003.8627659880791,854.97413368862,830.39816031153,486.4781479639759
1533058063.353,938.2738614776403,1015.6782516052866,865.230516245964,851.9955412130593,432.0901707276645
1533058063.357,973.3703000119799,1036.3462812059086,863.1795758164992,892.7966014915286,840.0030940935964
1533058063.361,924.2333692731598,1039.2971292003801,863.1795758164992,887.9993680459454,676.8329741974695
1533058063.365,884.4551693450394,1030.438538397305,869.7432573547945,883.1972194021598,888.3452124426764
1533058063.369,893.8186921326009,1033.3893863917763,859.0768547525596,873.597837312791,1151.2194043869827
1533058063.373,975.7087847204394,1021.5799475942296,849.2304922401066,873.597837312791,773.5233990828223
1533058063.3760002,1029.5274768530403,1009.7705087966829,856.2050340283029,933.597661769998,749.3523399082823
1533058063.38,996.7695230271603,1018.6290995997581,848.8204721952156,962.3958080381045,894.3910713299077
1533058063.3839998,945.2941075798806,1045.198825189323,847.5895718555328,933.597661769998,667.7672799602188
1533058063.3879998,900.8341462579795,1051.1065679979267,860.7177751371335,887.9993680459454,1009.2066965025692
1533058063.3920002,956.9913230990398,1027.487690402833,864.4104761561821,892.7966014915286,1353.665948394939
1533058063.3960001,1055.2651845766802,1018.6290995997581,865.6405362908549,957.5985745925213,836.9770705563843
1533058063.4,1008.4667385463196,1015.6782516052866,864.8204962010731,988.7953375834194,722.1614453837228
1533058063.404,949.9710769967996,1009.7705087966829,862.7687155665983,986.3967208606279,830.9373998563457
1533058063.408,938.2738614776403,997.9610699991362,859.8977350473516,947.9991925031525,836.9770705563843
1533058063.4120002,964.0115692012802,995.0102220046647,853.3332133040462,897.5987501353143,1078.7062268633626
1533058063.4160001,1010.8100152316407,1012.7213567911543,852.5123330092542,921.5996629578375,1172.3706282115033
1533058063.419,987.4107922164604,1015.6782516052866,857.0259143230949,959.9971913153129,1157.265263274214
1533058063.4229999,933.5921000838596,992.0533271905324,856.6150540731938,950.397809225944,855.1084590308857
1533058063.427,907.8543923602198,1006.8196608022114,854.1540935988381,892.7966014915286,685.8986684347201
1533058063.431,917.2131231709195,1033.3893863917763,855.795013983412,885.5958361249513,843.0229294436157
1533058063.435,1003.7897691294005,1012.7213567911543,869.3332373099037,940.7984271365752,776.5494226200343
1533058063.439,1022.5072307508001,974.3421924040427,861.9486754768163,938.3998104137836,722.1614453837228
1533058063.4429998,985.0675155311393,989.1024791960609,851.6922929194724,964.7993399590986,676.8329741974695
1533058063.447,999.1080077356198,995.0102220046647,854.97413368862,998.3996348709907,1003.1670258025305
1533058063.451,964.0115692012802,947.766419994817,852.1023129643633,928.7955131262123,900.4307420299464
1533058063.455,971.0318153035204,918.2397995911195,859.0768547525596,923.9982796806291,725.1812807337421
1533058063.4589999,966.3500539097397,918.2397995911195,867.2822968804388,969.5965734046817,1193.521852036024
1533058063.4620001,928.9151306669405,918.2397995911195,866.4614165856469,976.797338771259,1169.350792861484
1533058063.466,919.5563998562407,900.5286648046301,855.384153733511,955.1999578697297,661.7276092601801
1533058063.47,924.2333692731598,894.6209219960264,850.0513725348985,926.3968964034208,622.444996961158
1533058063.474,1015.4869846485599,912.3381036021768,859.8977350473516,964.7993399590986,713.0957511464721
1533058063.478,1041.2246923721998,918.2397995911195,855.795013983412,1007.9990169603595,725.1812807337421
1533058063.482,975.7087847204394,903.4795127991016,853.3332133040462,993.5974862272051,791.6547875573236
1533058063.486,945.2941075798806,921.1966944052521,863.5895958613902,986.3967208606279,710.0697276092602
1533058063.49,964.0115692012802,935.9569811972701,861.5386554319253,981.5994874150446,1033.383943864302
1533058063.494,1027.1889921445809,930.0492383886665,870.5641376495865,1000.7982515937823,873.239847505387
1533058063.498,1064.62391538738,927.0983903941949,877.9486994826738,1063.196692773781,719.1354218465109
1533058063.5010002,1031.8659615615,918.2397995911195,872.2050580341603,1072.7960748631497,589.2082435493674
1533058063.505,987.4107922164604,903.4795127991016,862.3586955217073,1027.1977811390973,374.67616995414113
1533058063.5089998,980.3905461142202,906.4303607935731,852.1023129643633,988.7953375834194,531.8004309630367
1533058063.5129998,1041.2246923721998,921.1966944052521,856.2050340283029,986.3967208606279,640.5763854356594
1533058063.5170002,1045.9064537659804,900.5286648046301,861.5386554319253,1005.5954850393655,770.503563732803
1533058063.5210001,985.0675155311393,897.5717699904978,863.5895958613902,986.3967208606279,1018.2723907398199
1533058063.525,942.9508308945594,897.5717699904978,861.5386554319253,945.5956605821584,991.0814962152605
1533058063.529,921.8948845647002,876.9037403898759,851.6922929194724,914.3988975912603,966.9042488535279
1533058063.533,1001.4464924440794,891.6700740015549,858.6668347076687,945.5956605821584,918.5621305044477
1533058063.5370002,1064.62391538738,915.2889515966483,859.8977350473516,1003.1968683165738,809.786176031825
1533058063.5410001,1031.8659615615,927.0983903941949,857.0259143230949,993.5974862272051,1036.4037792143213
1533058063.544,992.0877616333795,927.0983903941949,859.4868747974506,988.7953375834194,1169.350792861484
1533058063.5479999,945.2941075798806,924.1475423997235,852.9231932591553,974.3987220484673,540.8661252002873
1533058063.552,982.7290308226798,918.2397995911195,861.9486754768163,962.3958080381045,329.3538869550804
1533058063.556,1036.5477229552805,915.2889515966483,871.3841777393684,995.9961029499966,852.0886236808664
1533058063.56,999.1080077356198,927.0983903941949,863.5895958613902,1005.5954850393655,1145.179733686944
1533058063.564,978.0520614057607,927.0983903941949,860.3077550922425,1012.7962504059427,667.7672799602188
1533058063.5679998,973.3703000119799,953.6741628034206,859.8977350473516,995.9961029499966,498.5636775512459
1533058063.572,1010.8100152316407,971.3852975899105,860.3077550922425,964.7993399590986,975.9699430907785
1533058063.576,1099.7203539217196,950.7172679892885,862.3586955217073,993.5974862272051,936.6873307917565
1533058063.58,1055.2651845766802,950.7172679892885,856.2050340283029,991.1988695044134,933.6674954417371
1533058063.5839999,975.7087847204394,938.9078291917418,852.1023129643633,938.3998104137836,580.1425493121167
1533058063.5870001,956.9913230990398,921.1966944052521,853.3332133040462,883.1972194021598,794.674622907343
1533058063.591,961.6730844928206,900.5286648046301,854.1540935988381,863.9984552234221,1139.1338747997127
1533058063.595,1031.8659615615,909.3872556077054,860.7177751371335,912.0002808684687,1105.897121387922
1533058063.599,1064.62391538738,947.766419994817,853.7432333489371,952.7964259487356,1163.3111221614454
1533058063.603,1015.4869846485599,950.7172679892885,853.3332133040462,935.9962784927895,1036.4037792143213
1533058063.607,982.7290308226798,938.9078291917418,848.4104521503247,909.5967489474747,658.7077739101608
1533058063.611,996.7695230271603,933.0061332027988,848.4104521503247,899.9973668581058,707.0498922592409
1533058063.615,1048.24493847444,930.0492383886665,861.5386554319253,935.9962784927895,864.1741532681364
1533058063.619,1059.9421539935993,935.9569811972701,844.307731086385,988.7953375834194,389.7877230786231
1533058063.623,982.7290308226798,924.1475423997235,837.7432093430797,983.9981041378362,344.4592518923697
1533058063.6260002,914.87463846246,912.3381036021768,843.8977110414942,950.397809225944,504.6033482512846
1533058063.63,933.5921000838596,930.0492383886665,840.2050100224454,919.1961310368436,459.28106525222387
1533058063.6339998,982.7290308226798,935.9569811972701,854.97413368862,919.1961310368436,830.9373998563457
1533058063.6379998,980.3905461142202,930.0492383886665,861.1277951820244,981.5994874150446,867.1939886181557
1533058063.6420002,912.5361537540005,933.0061332027988,856.2050340283029,991.1988695044134,785.6089286700923
1533058063.6460001,858.7174616213996,903.4795127991016,850.8714126246804,959.9971913153129,906.4766009171777
1533058063.65,872.7579538258801,903.4795127991016,839.7949899775546,943.1970438593668,982.0158019780098
1533058063.654,942.9508308945594,933.0061332027988,841.0258903172374,947.9991925031525,707.0498922592409
1533058063.658,985.0675155311393,933.0061332027988,846.3586715158499,974.3987220484673,498.5636775512459
1533058063.6620002,938.2738614776403,947.766419994817,849.2304922401066,962.3958080381045,894.3910713299077
1533058063.6660001,872.7579538258801,947.766419994817,853.7432333489371,919.1961310368436,963.8844135035084
1533058063.669,875.0964385343397,938.9078291917418,848.8204721952156,890.397984768737,667.7672799602188
1533058063.6729999,961.6730844928206,941.8647240058741,861.5386554319253,919.1961310368436,746.3325045582629
1533058063.677,1013.1484999401002,918.2397995911195,872.2050580341603,969.5965734046817,972.9501077407591
1533058063.681,949.9710769967996,909.3872556077054,863.5895958613902,964.7993399590986,948.7790485662191
1533058063.685,912.5361537540005,924.1475423997235,859.0768547525596,962.3958080381045,855.1084590308857
1533058063.689,905.5159076517602,935.9569811972701,847.9995919004238,957.5985745925213,716.1155864964916
1533058063.6929998,961.6730844928206,930.0492383886665,845.9486514709589,955.1999578697297,818.8518702690757
1533058063.697,1031.8659615615,941.8647240058741,852.5123330092542,986.3967208606279,1075.6802033261506
1533058063.701,982.7290308226798,965.4836016009675,849.6405122849975,1005.5954850393655,827.9113763191336
1533058063.705,924.2333692731598,977.2930403985142,849.2304922401066,988.7953375834194,710.0697276092602
1533058063.708,872.7579538258801,992.0533271905324,845.127771176167,940.7984271365752,643.5962207856787
1533058063.7120001,907.8543923602198,971.3852975899105,855.384153733511,940.7984271365752,1021.2922260898392
1533058063.716,992.0877616333795,933.0061332027988,862.7687155665983,983.9981041378362,1012.2327200397812
1533058063.72,952.3143536821208,941.8647240058741,859.0768547525596,1003.1968683165738,583.1685728493287
1533058063.724,891.4754154472797,941.8647240058741,863.1795758164992,962.3958080381045,713.0957511464721
1533058063.728,851.6972155191594,927.0983903941949,855.795013983412,890.397984768737,975.9699430907785
1533058063.732,891.4754154472797,927.0983903941949,854.5641136437291,883.1972194021598,864.1741532681364
1533058063.736,964.0115692012802,912.3381036021768,859.0768547525596,928.7955131262123,685.8986684347201
1533058063.74,954.6528383905803,912.3381036021768,857.8459544128767,945.5956605821584,791.6547875573236
1533058063.744,933.5921000838596,918.2397995911195,859.8977350473516,938.3998104137836,749.3523399082823
1533058063.748,914.87463846246,912.3381036021768,856.2050340283029,916.7975143140519,697.9841980219902
1533058063.7510002,938.2738614776403,906.4303607935731,850.4613925797895,904.7995155018915,1015.2525553898006
1533058063.755,989.74927692492,909.3872556077054,854.97413368862,955.1999578697297,1069.640532626112
1533058063.7589998,1001.4464924440794,903.4795127991016,857.8459544128767,993.5974862272051,806.760152494613
1533058063.7629998,973.3703000119799,921.1966944052521,867.6923169253298,962.3958080381045,849.0626001436543
1533058063.7670002,949.9710769967996,938.9078291917418,879.1795998223566,928.7955131262123,867.1939886181557
1533058063.7710001,975.7087847204394,938.9078291917418,875.896918848199,923.9982796806291,988.0554726780485
1533058063.775,1043.567969057521,953.6741628034206,883.2823208862962,931.1990450472064,1012.2327200397812
1533058063.779,1050.5834231828994,962.5327536064958,884.5123810209691,947.9991925031525,722.1614453837228
1533058063.783,985.0675155311393,980.2438883929857,868.1023369702208,952.7964259487356,873.239847505387
1533058063.7870002,919.5563998562407,974.3421924040427,851.2822728745814,928.7955131262123,1045.469473451572
1533058063.7910001,924.2333692731598,968.434449595439,841.4359103621283,912.0002808684687,824.8915409691143
1533058063.794,985.0675155311393,968.434449595439,845.5386314260679,943.1970438593668,855.1084590308857
1533058063.7979999,1001.4464924440794,974.3421924040427,855.384153733511,967.1979566818901,843.0229294436157
1533058063.802,942.9508308945594,980.2438883929857,866.8714366305378,957.5985745925213,776.5494226200343
1533058063.806,910.1928770686793,995.0102220046647,863.1795758164992,950.397809225944,843.0229294436157
1533058063.81,917.2131231709195,1000.9119179936076,854.5641136437291,933.597661769998,900.4307420299464
1533058063.814,949.9710769967996,959.5758587923638,867.2822968804388,945.5956605821584,1154.2454279241947
1533058063.8179998,966.3500539097397,941.8647240058741,870.1541176046956,981.5994874150446,1066.6206972760926
1533058063.822,949.9710769967996,956.6250107978923,871.7950379892694,1003.1968683165738,855.1084590308857
1533058063.826,942.9508308945594,930.0492383886665,869.7432573547945,967.1979566818901,1108.923144925134
1533058063.83,912.5361537540005,909.3872556077054,855.795013983412,916.7975143140519,1027.3380849770706
1533058063.833,992.0877616333795,912.3381036021768,851.6922929194724,950.397809225944,691.9445273219515
1533058063.8370001,1050.5834231828994,894.6209219960264,862.3586955217073,1000.7982515937823,840.0030940935964
1533058063.841,966.3500539097397,897.5717699904978,870.5641376495865,993.5974862272051,1015.2525553898006
1533058063.845,928.9151306669405,909.3872556077054,869.3332373099037,969.5965734046817,800.7204817945743
1533058063.849,912.5361537540005,915.2889515966483,868.9232172650127,945.5956605821584,975.9699430907785
1533058063.853,942.9508308945594,909.3872556077054,878.7687395724557,931.1990450472064,909.496436267197
1533058063.857,982.7290308226798,900.5286648046301,870.5641376495865,962.3958080381045,870.213823968175
1533058063.861,945.2941075798806,906.4303607935731,855.795013983412,957.5985745925213,1021.2922260898392
1533058063.865,905.5159076517602,912.3381036021768,864.8204962010731,943.1970438593668,688.9185037847395
1533058063.869,882.1166846365799,897.5717699904978,863.5895958613902,943.1970438593668,592.2280788993867
1533058063.873,914.87463846246,906.4303607935731,864.4104761561821,952.7964259487356,643.5962207856787
1533058063.8760002,994.4310383187006,927.0983903941949,866.051396540756,995.9961029499966,818.8518702690757
1533058063.88,961.6730844928206,927.0983903941949,854.1540935988381,1003.1968683165738,770.503563732803
1533058063.8839998,891.4754154472797,918.2397995911195,845.5386314260679,964.7993399590986,661.7276092601801
1533058063.8879998,863.3992230151803,906.4303607935731,836.5123090033968,902.3959835808975,646.6222443228908
1533058063.8920002,900.8341462579795,906.4303607935731,849.6405122849975,892.7966014915286,634.530526548428
1533058063.8960001,964.0115692012802,897.5717699904978,861.9486754768163,950.397809225944,864.1741532681364
1533058063.9,945.2941075798806,888.7192260070834,843.8977110414942,957.5985745925213,652.6619150229294
1533058063.904,903.1774229433006,906.4303607935731,841.0258903172374,947.9991925031525,353.52494612962045
1533058063.908,877.4397152196608,941.8647240058741,845.9486514709589,926.3968964034208,806.760152494613
1533058063.9120002,917.2131231709195,980.2438883929857,843.0768307467022,883.1972194021598,1102.8772860379026
1533058063.9160001,994.4310383187006,995.0102220046647,848.8204721952156,907.198132224683,543.8859605503067
1533058063.919,973.3703000119799,983.200783207118,855.795013983412,955.1999578697297,519.7149013757667
1533058063.9229999,931.2536153754,977.2930403985142,854.1540935988381,972.0001053256758,806.760152494613
1533058063.927,928.9151306669405,983.200783207118,838.5640896378717,950.397809225944,453.2413945521852
1533058063.931,945.2941075798806,1003.8627659880791,839.7949899775546,926.3968964034208,682.8788330847008
1533058063.935,1003.7897691294005,1015.6782516052866,852.5123330092542,957.5985745925213,1296.2581358086081
1533058063.939,1003.7897691294005,1003.8627659880791,855.795013983412,972.0001053256758,1365.751477982209
1533058063.9429998,940.6123461860999,997.9610699991362,853.3332133040462,952.7964259487356,1099.8574506878833
1533058063.947,900.8341462579795,995.0102220046647,845.5386314260679,899.9973668581058,776.5494226200343
1533058063.951,898.4956615495199,974.3421924040427,846.7686915607409,839.9975424008987,658.7077739101608
1533058063.955,949.9710769967996,965.4836016009675,861.5386554319253,866.3970719462137,574.102878612078
1533058063.958,956.9913230990398,971.3852975899105,855.384153733511,909.5967489474747,670.7933034974308
1533058063.9620001,917.2131231709195,997.9610699991362,860.3077550922425,904.7995155018915,843.0229294436157
1533058063.966,896.1571768410604,1015.6782516052866,868.1023369702208,895.2001334125226,963.8844135035084
1533058063.97,903.1774229433006,1003.8627659880791,852.1023129643633,849.5969244902676,833.957235206365
1533058063.974,987.4107922164604,997.9610699991362,857.4359343679857,856.7976898568448,752.3721752583016
1533058063.978,1038.8862076637402,992.0533271905324,866.8714366305378,926.3968964034208,710.0697276092602
1533058063.982,968.6885386181992,997.9610699991362,868.5123570151117,926.3968964034208,779.5692579700536
1533058063.986,917.2131231709195,1003.8627659880791,866.051396540756,887.9993680459454,562.017349024808
1533058063.99,935.9353767691807,983.200783207118,871.3841777393684,849.5969244902676,767.4837283827836
1533058063.994,987.4107922164604,977.2930403985142,883.2823208862962,873.597837312791,988.0554726780485
1533058063.998,1029.5274768530403,983.200783207118,875.896918848199,957.5985745925213,773.5233990828223
1533058064.0010002,987.4107922164604,989.1024791960609,867.6923169253298,972.0001053256758,821.871705619095
1533058064.005,931.2536153754,1003.8627659880791,873.4359583738432,935.9962784927895,652.6619150229294
1533058064.0089998,919.5563998562407,980.2438883929857,866.8714366305378,912.0002808684687,652.6619150229294
1533058064.0129998,985.0675155311393,962.5327536064958,863.5895958613902,923.9982796806291,707.0498922592409
1533058064.0170002,1045.9064537659804,980.2438883929857,864.4104761561821,998.3996348709907,707.0498922592409
1533058064.0210001,1001.4464924440794,983.200783207118,861.9486754768163,1036.797163228466,897.410906679927
1533058064.025,952.3143536821208,968.434449595439,855.795013983412,995.9961029499966,966.9042488535279
1533058064.029,933.5921000838596,950.7172679892885,845.5386314260679,945.5956605821584,991.0814962152605
1533058064.033,980.3905461142202,950.7172679892885,848.4104521503247,950.397809225944,855.1084590308857
1533058064.0370002,1031.8659615615,941.8647240058741,857.4359343679857,1007.9990169603595,474.38643018951325
1533058064.04,961.6730844928206,921.1966944052521,856.6150540731938,1024.7991644163055,945.7530250290072
1533058064.044,893.8186921326009,915.2889515966483,858.6668347076687,991.1988695044134,1244.889993922316
1533058064.0479999,872.7579538258801,912.3381036021768,854.1540935988381,959.9971913153129,876.2596828554064
1533058064.052,928.9151306669405,921.1966944052521,857.4359343679857,950.397809225944,927.6278247416984
1533058064.056,1001.4464924440794,927.0983903941949,862.7687155665983,1000.7982515937823,840.0030940935964
1533058064.06,949.9710769967996,921.1966944052521,854.5641136437291,1019.99701577252,661.7276092601801
1533058064.064,889.1369307388202,915.2889515966483,850.0513725348985,983.9981041378362,649.6420796729101
1533058064.0679998,872.7579538258801,903.4795127991016,845.5386314260679,959.9971913153129,827.9113763191336
1533058064.072,896.1571768410604,900.5286648046301,847.1795518106418,935.9962784927895,876.2596828554064
1533058064.076,961.6730844928206,915.2889515966483,858.6668347076687,952.7964259487356,991.0814962152605
1533058064.08,961.6730844928206,903.4795127991016,858.6668347076687,964.7993399590986,969.9302723907398
1533058064.083,919.5563998562407,915.2889515966483,862.7687155665983,940.7984271365752,794.674622907343
1533058064.0870001,889.1369307388202,956.6250107978923,861.5386554319253,904.7995155018915,1018.2723907398199
1533058064.091,905.5159076517602,953.6741628034206,860.7177751371335,885.5958361249513,1084.7458975634013
1533058064.095,989.74927692492,944.8155720003454,865.6405362908549,928.7955131262123,821.871705619095
1533058064.099,975.7087847204394,930.0492383886665,861.9486754768163,955.1999578697297,640.5763854356594
1533058064.103,886.7984460303607,900.5286648046301,859.0768547525596,940.7984271365752,927.6278247416984
1533058064.107,851.6972155191594,891.6700740015549,853.7432333489371,892.7966014915286,918.5621305044477
1533058064.111,858.7174616213996,906.4303607935731,861.9486754768163,837.5989256781072,737.2668103210123
1533058064.115,926.5718539816194,918.2397995911195,872.6150780790513,847.198307767476,797.700646444555
1533058064.119,926.5718539816194,912.3381036021768,870.9741576944774,904.7995155018915,948.7790485662191
1533058064.123,863.3992230151803,906.4303607935731,857.8459544128767,919.1961310368436,1235.8242996850654
1533058064.1260002,858.7174616213996,933.0061332027988,844.307731086385,887.9993680459454,1142.1598983369247
1533058064.13,882.1166846365799,947.766419994817,843.4868507915932,849.5969244902676,912.5162716172164
1533058064.1339998,949.9710769967996,947.766419994817,851.2822728745814,887.9993680459454,972.9501077407591
1533058064.1379998,1008.4667385463196,962.5327536064958,837.3331892981888,926.3968964034208,882.299353555445
1533058064.1420002,952.3143536821208,962.5327536064958,833.6413284841501,907.198132224683,767.4837283827836
1533058064.1460001,889.1369307388202,965.4836016009675,834.0513485290411,899.9973668581058,912.5162716172164
1533058064.15,872.7579538258801,971.3852975899105,818.0513245231837,875.9964540355825,954.8187192662579
1533058064.154,935.9353767691807,983.200783207118,825.02586631138,887.9993680459454,767.4837283827836
1533058064.158,996.7695230271603,1003.8627659880791,834.871388618823,967.1979566818901,562.017349024808
1533058064.1620002,961.6730844928206,1027.487690402833,842.2559504519103,979.1959554940505,444.17570031493455
1533058064.165,910.1928770686793,1009.7705087966829,838.1540695929807,959.9971913153129,568.0570197248467
1533058064.169,907.8543923602198,997.9610699991362,826.2559264460529,931.1990450472064,818.8518702690757
1533058064.1729999,973.3703000119799,1024.530795588701,839.7949899775546,916.7975143140519,670.7933034974308
1533058064.177,1034.2044462699594,995.0102220046647,848.4104521503247,964.7993399590986,773.5233990828223
1533058064.181,989.74927692492,965.4836016009675,848.4104521503247,979.1959554940505,936.6873307917565
1533058064.185,940.6123461860999,968.434449595439,849.6405122849975,947.9991925031525,785.6089286700923
1533058064.189,919.5563998562407,953.6741628034206,839.3841297276535,923.9982796806291,749.3523399082823
1533058064.1929998,940.6123461860999,950.7172679892885,833.6413284841501,914.3988975912603,888.3452124426764
1533058064.197,982.7290308226798,956.6250107978923,826.2559264460529,938.3998104137836,595.2541024365987
1533058064.201,935.9353767691807,974.3421924040427,833.6413284841501,945.5956605821584,655.6817503729487
1533058064.205,891.4754154472797,1000.9119179936076,845.127771176167,914.3988975912603,531.8004309630367
1533058064.208,877.4397152196608,1009.7705087966829,846.7686915607409,895.2001334125226,604.3197966738494
1533058064.2120001,928.9151306669405,995.0102220046647,857.0259143230949,895.2001334125226,1323.4490303331677
1533058064.216,1013.1484999401002,977.2930403985142,858.6668347076687,935.9962784927895,1256.975523509586
1533058064.22,966.3500539097397,977.2930403985142,853.7432333489371,959.9971913153129,746.3325045582629
1533058064.224,914.87463846246,997.9610699991362,862.7687155665983,940.7984271365752,978.9897784407979
1533058064.228,896.1571768410604,986.1516312015895,857.8459544128767,919.1961310368436,1124.0285098624233
1533058064.232,942.9508308945594,989.1024791960609,846.3586715158499,916.7975143140519,827.9113763191336
1533058064.236,1024.8457154592597,1006.8196608022114,852.9231932591553,945.5956605821584,1039.4236145643406
1533058064.24,985.0675155311393,995.0102220046647,857.4359343679857,964.7993399590986,1108.923144925134
1533058064.244,931.2536153754,997.9610699991362,863.1795758164992,969.5965734046817,1087.7719211006133
1533058064.248,921.8948845647002,1015.6782516052866,860.3077550922425,943.1970438593668,1015.2525553898006
1533058064.2510002,954.6528383905803,1018.6290995997581,858.2559744577677,923.9982796806291,966.9042488535279
1533058064.255,1022.5072307508001,1030.438538397305,868.9232172650127,940.7984271365752,1042.44344991436
1533058064.2589998,1036.5477229552805,1036.3462812059086,868.9232172650127,967.1979566818901,785.6089286700923
1533058064.2629998,987.4107922164604,1030.438538397305,865.230516245964,950.397809225944,749.3523399082823
1533058064.2670002,924.2333692731598,1006.8196608022114,865.6405362908549,897.5987501353143,861.1481297309243
1533058064.2710001,919.5563998562407,1000.9119179936076,864.8204962010731,878.3999859565765,601.2937731366374
1533058064.275,982.7290308226798,1003.8627659880791,868.9232172650127,916.7975143140519,670.7933034974308
1533058064.279,994.4310383187006,968.434449595439,863.9996159062812,945.5956605821584,858.128294380905
1533058064.283,945.2941075798806,968.434449595439,862.7687155665983,945.5956605821584,655.6817503729487
1533058064.2870002,931.2536153754,962.5327536064958,863.1795758164992,935.9962784927895,655.6817503729487
1533058064.29,952.3143536821208,950.7172679892885,857.4359343679857,909.5967489474747,876.2596828554064
1533058064.294,1006.12825383786,968.434449595439,861.1277951820244,933.597661769998,939.7133543289684
1533058064.2979999,1052.9266998682206,965.4836016009675,860.7177751371335,995.9961029499966,776.5494226200343
1533058064.302,999.1080077356198,953.6741628034206,861.9486754768163,1007.9990169603595,577.1227139620974
1533058064.306,898.4956615495199,924.1475423997235,854.5641136437291,926.3968964034208,474.38643018951325
1533058064.31,896.1571768410604,912.3381036021768,843.0768307467022,885.5958361249513,628.4908558483894
1533058064.314,980.3905461142202,924.1475423997235,856.6150540731938,923.9982796806291,607.3396320238687
1533058064.3179998,1006.12825383786,915.2889515966483,860.7177751371335,959.9971913153129,362.59064036687107
1533058064.322,933.5921000838596,912.3381036021768,856.6150540731938,957.5985745925213,507.6293717884966
1533058064.326,868.0761924320994,906.4303607935731,863.9996159062812,928.7955131262123,858.128294380905
1533058064.33,870.4194691174206,906.4303607935731,863.5895958613902,890.397984768737,879.2795182054257
1533058064.333,938.2738614776403,938.9078291917418,875.896918848199,902.3959835808975,734.2469749709928
1533058064.3370001,994.4310383187006,977.2930403985142,880.4105001620395,955.1999578697297,988.0554726780485
1533058064.341,961.6730844928206,986.1516312015895,869.3332373099037,976.797338771259,1072.6603679761313
1533058064.345,926.5718539816194,974.3421924040427,860.7177751371335,974.3987220484673,833.957235206365
1533058064.349,917.2131231709195,968.434449595439,852.9231932591553,943.1970438593668,701.0102215592021
1533058064.353,987.4107922164604,977.2930403985142,854.97413368862,950.397809225944,649.6420796729101
1533058064.357,1052.9266998682206,968.434449595439,860.3077550922425,998.3996348709907,830.9373998563457
1533058064.361,971.0318153035204,947.766419994817,863.1795758164992,993.5974862272051,972.9501077407591
1533058064.365,917.2131231709195,947.766419994817,869.3332373099037,943.1970438593668,924.6018012044865
1533058064.369,907.8543923602198,935.9569811972701,859.4868747974506,914.3988975912603,1036.4037792143213
1533058064.3720002,940.6123461860999,941.8647240058741,847.5895718555328,912.0002808684687,818.8518702690757
1533058064.3760002,1010.8100152316407,953.6741628034206,855.795013983412,976.797338771259,640.5763854356594
1533058064.38,987.4107922164604,933.0061332027988,859.8977350473516,1019.99701577252,840.0030940935964
1533058064.3839998,940.6123461860999,938.9078291917418,854.1540935988381,988.7953375834194,843.0229294436157
1533058064.3879998,910.1928770686793,965.4836016009675,841.0258903172374,950.397809225944,852.0886236808664
1533058064.3920002,924.2333692731598,962.5327536064958,832.8204481893582,928.7955131262123,1151.2194043869827
1533058064.3960001,978.0520614057607,927.0983903941949,831.1795278047844,962.3958080381045,652.6619150229294
1533058064.4,966.3500539097397,918.2397995911195,831.9995678945663,995.9961029499966,401.8732526658931
1533058064.404,914.87463846246,915.2889515966483,833.6413284841501,969.5965734046817,812.8060113818443
1533058064.408,879.7781999281203,906.4303607935731,836.1022889585058,921.5996629578375,743.3064810210509
1533058064.4120002,912.5361537540005,933.0061332027988,846.7686915607409,902.3959835808975,691.9445273219515
1533058064.415,985.0675155311393,941.8647240058741,852.5123330092542,933.597661769998,749.3523399082823
1533058064.419,992.0877616333795,927.0983903941949,849.6405122849975,981.5994874150446,413.9587822531632
1533058064.4229999,940.6123461860999,915.2889515966483,854.97413368862,974.3987220484673,450.2153710149732
1533058064.427,910.1928770686793,900.5286648046301,851.2822728745814,923.9982796806291,537.8401016630753
1533058064.431,949.9710769967996,897.5717699904978,849.6405122849975,928.7955131262123,335.39974584231175
1533058064.435,1029.5274768530403,912.3381036021768,860.7177751371335,972.0001053256758,392.8075584286425
1533058064.439,1036.5477229552805,924.1475423997235,850.8714126246804,983.9981041378362,652.6619150229294
1533058064.4429998,1006.12825383786,912.3381036021768,847.5895718555328,986.3967208606279,667.7672799602188
1533058064.447,968.6885386181992,903.4795127991016,851.6922929194724,957.5985745925213,583.1685728493287
1533058064.451,971.0318153035204,900.5286648046301,841.8459304070193,923.9982796806291,661.7276092601801
1533058064.455,1055.2651845766802,891.6700740015549,849.2304922401066,955.1999578697297,543.8859605503067
1533058064.458,1069.3056767811606,903.4795127991016,855.384153733511,1003.1968683165738,528.7805956130173
1533058064.4620001,994.4310383187006,930.0492383886665,853.7432333489371,981.5994874150446,604.3197966738494
1533058064.466,921.8948845647002,918.2397995911195,857.4359343679857,940.7984271365752,888.3452124426764
1533058064.47,896.1571768410604,900.5286648046301,852.5123330092542,926.3968964034208,670.7933034974308
1533058064.474,949.9710769967996,912.3381036021768,859.4868747974506,919.1961310368436,323.3080280678491
1533058064.478,992.0877616333795,924.1475423997235,866.051396540756,964.7993399590986,791.6547875573236
1533058064.482,956.9913230990398,915.2889515966483,859.0768547525596,972.0001053256758,758.4180341455329
1533058064.486,900.8341462579795,909.3872556077054,853.7432333489371,904.7995155018915,855.1084590308857
1533058064.49,884.4551693450394,912.3381036021768,850.0513725348985,871.1992205899993,864.1741532681364
1533058064.494,938.2738614776403,918.2397995911195,852.5123330092542,883.1972194021598,731.2209514337809
1533058064.4970002,975.7087847204394,912.3381036021768,858.6668347076687,928.7955131262123,939.7133543289684
1533058064.5010002,921.8948845647002,909.3872556077054,864.4104761561821,916.7975143140519,1063.5946737388806
1533058064.505,868.0761924320994,927.0983903941949,868.9232172650127,897.5987501353143,1093.811591800652
1533058064.5089998,844.6817613937807,930.0492383886665,852.9231932591553,887.9993680459454,791.6547875573236
1533058064.5129998,907.8543923602198,930.0492383886665,851.2822728745814,895.2001334125226,211.51223824520693
1533058064.5170002,996.7695230271603,924.1475423997235,866.051396540756,967.1979566818901,423.02447649041386
1533058064.5210001,964.0115692012802,915.2889515966483,873.0250981239423,981.5994874150446,788.6349522073043
1533058064.525,910.1928770686793,935.9569811972701,870.9741576944774,964.7993399590986,640.5763854356594
1533058064.529,891.4754154472797,968.434449595439,861.1277951820244,945.5956605821584,918.5621305044477
1533058064.533,931.2536153754,962.5327536064958,861.1277951820244,943.1970438593668,764.4577048455716
1533058064.5370002,978.0520614057607,947.766419994817,866.051396540756,988.7953375834194,679.8589977346815
1533058064.54,949.9710769967996,971.3852975899105,860.7177751371335,995.9961029499966,1048.4893088015913
1533058064.544,907.8543923602198,983.200783207118,858.2559744577677,981.5994874150446,933.6674954417371
1533058064.5479999,905.5159076517602,959.5758587923638,855.795013983412,957.5985745925213,1305.3238300458588
1533058064.552,952.3143536821208,950.7172679892885,857.4359343679857,964.7993399590986,1154.2454279241947
1533058064.556,1045.9064537659804,950.7172679892885,859.8977350473516,1027.1977811390973,939.7133543289684
1533058064.56,1015.4869846485599,909.3872556077054,852.9231932591553,1048.8000772388289,1229.7846289850268
1533058064.564,940.6123461860999,906.4303607935731,856.2050340283029,1022.3956324953116,1051.5091441516106
1533058064.5679998,900.8341462579795,915.2889515966483,847.9995919004238,993.5974862272051,936.6873307917565
1533058064.572,891.4754154472797,888.7192260070834,840.2050100224454,974.3987220484673,1033.383943864302
1533058064.576,971.0318153035204,891.6700740015549,845.5386314260679,1012.7962504059427,1293.2383004585888
1533058064.58,975.7087847204394,915.2889515966483,841.0258903172374,1043.9979285950433,1278.1267473341068
1533058064.583,907.8543923602198,900.5286648046301,841.8459304070193,1029.5963978618888,1003.1670258025305
1533058064.5870001,854.0404922044805,865.0943015923292,839.3841297276535,983.9981041378362,885.325377092657
1533058064.591,879.7781999281203,865.0943015923292,843.0768307467022,947.9991925031525,806.760152494613
1533058064.595,975.7087847204394,868.0511964064615,862.3586955217073,974.3987220484673,1114.9628156251727
1533058064.599,989.74927692492,823.7582423910852,857.0259143230949,983.9981041378362,1314.3895242831095
1533058064.603,910.1928770686793,806.0471076045956,855.384153733511,972.0001053256758,900.4307420299464
1533058064.607,849.3587308106999,808.997955599067,860.3077550922425,964.7993399590986,830.9373998563457
1533058064.611,858.7174616213996,794.2376688070489,854.1540935988381,933.597661769998,939.7133543289684
1533058064.615,956.9913230990398,811.9488035935385,858.2559744577677,957.5985745925213,936.6873307917565
1533058064.619,996.7695230271603,844.4262719917073,861.5386554319253,995.9961029499966,679.8589977346815
1533058064.6220002,935.9353767691807,859.1926056033863,863.9996159062812,991.1988695044134,583.1685728493287
1533058064.6260002,910.1928770686793,859.1926056033863,866.051396540756,952.7964259487356,543.8859605503067
1533058064.63,905.5159076517602,862.1434535978577,866.4614165856469,919.1961310368436,522.734736725786
1533058064.6339998,980.3905461142202,871.002044400933,871.3841777393684,952.7964259487356,540.8661252002873
1533058064.6379998,1017.8254693570194,873.9528923954044,870.9741576944774,1003.1968683165738,743.3064810210509
1533058064.6420002,900.8341462579795,871.002044400933,861.1277951820244,955.1999578697297,1066.6206972760926
1533058064.6460001,854.0404922044805,885.7623311929511,850.0513725348985,899.9973668581058,628.4908558483894
1533058064.65,865.7377077236398,888.7192260070834,850.4613925797895,892.7966014915286,456.26122990220455
1533058064.654,931.2536153754,865.0943015923292,851.2822728745814,909.5967489474747,555.9714901375767
1533058064.658,985.0675155311393,871.002044400933,837.7432093430797,979.1959554940505,504.6033482512846
1533058064.6620002,926.5718539816194,903.4795127991016,834.4613685739321,976.797338771259,685.8986684347201
1533058064.665,896.1571768410604,918.2397995911195,835.282248868724,947.9991925031525,852.0886236808664
1533058064.669,877.4397152196608,906.4303607935731,829.5386074202105,921.5996629578375,1024.3182496270513
1533058064.6729999,917.2131231709195,900.5286648046301,831.1795278047844,916.7975143140519,951.7988839162384
1533058064.677,980.3905461142202,897.5717699904978,829.5386074202105,981.5994874150446,1039.4236145643406
1533058064.681,942.9508308945594,879.8606352040082,831.9995678945663,1007.9990169603595,1238.8503232222774
1533058064.685,905.5159076517602,888.7192260070834,836.9231692532978,1000.7982515937823,1039.4236145643406
1533058064.689,898.4956615495199,891.6700740015549,836.5123090033968,976.797338771259,1084.7458975634013
1533058064.6929998,964.0115692012802,888.7192260070834,850.0513725348985,955.1999578697297,954.8187192662579
1533058064.697,1041.2246923721998,906.4303607935731,850.0513725348985,1010.3976336831511,625.4710204983701
1533058064.701,1008.4667385463196,930.0492383886665,842.6668107018112,1027.1977811390973,697.9841980219902
1533058064.704,940.6123461860999,947.766419994817,850.8714126246804,988.7953375834194,737.2668103210123
1533058064.708,912.5361537540005,962.5327536064958,846.3586715158499,943.1970438593668,688.9185037847395
1533058064.7120001,945.2941075798806,974.3421924040427,844.717751131276,923.9982796806291,812.8060113818443
1533058064.716,980.3905461142202,974.3421924040427,852.1023129643633,962.3958080381045,649.6420796729101
1533058064.72,931.2536153754,977.2930403985142,852.9231932591553,976.797338771259,676.8329741974695
1533058064.724,893.8186921326009,989.1024791960609,854.1540935988381,967.1979566818901,1196.547875573236
1533058064.728,884.4551693450394,1000.9119179936076,842.6668107018112,940.7984271365752,1030.35792032709
1533058064.732,882.1166846365799,977.2930403985142,830.3586475099925,892.7966014915286,652.6619150229294
1533058064.736,942.9508308945594,974.3421924040427,843.4868507915932,933.597661769998,800.7204817945743
1533058064.74,964.0115692012802,968.434449595439,847.9995919004238,950.397809225944,861.1481297309243
1533058064.744,903.1774229433006,992.0533271905324,847.1795518106418,931.1990450472064,957.8385546162772
1533058064.7470002,868.0761924320994,1039.2971292003801,840.6150300673364,931.1990450472064,731.2209514337809
1533058064.7510002,870.4194691174206,1018.6290995997581,836.5123090033968,916.7975143140519,549.9256312503453
1533058064.755,931.2536153754,1012.7213567911543,845.127771176167,943.1970438593668,849.0626001436543
1533058064.7589998,928.9151306669405,1027.487690402833,849.6405122849975,988.7953375834194,1220.718934747776
1533058064.7629998,879.7781999281203,1030.438538397305,846.3586715158499,1010.3976336831511,924.6018012044865
1533058064.7670002,872.7579538258801,1015.6782516052866,830.7695077598934,983.9981041378362,447.19553566495387
1533058064.7710001,891.4754154472797,1000.9119179936076,822.1540455871233,957.5985745925213,468.34675948947455
1533058064.775,964.0115692012802,995.0102220046647,827.0768067408447,986.3967208606279,619.4251616111387
1533058064.779,971.0318153035204,989.1024791960609,828.3077070805276,1024.7991644163055,531.8004309630367
1533058064.783,921.8948845647002,986.1516312015895,836.9231692532978,1027.1977811390973,815.8258467318636
1533058064.7870002,903.1774229433006,986.1516312015895,843.8977110414942,1003.1968683165738,942.7331896789877
1533058064.79,917.2131231709195,1012.7213567911543,845.127771176167,972.0001053256758,604.3197966738494
1533058064.794,987.4107922164604,1018.6290995997581,861.9486754768163,1000.7982515937823,758.4180341455329
1533058064.7979999,1003.7897691294005,992.0533271905324,859.4868747974506,1022.3956324953116,1157.265263274214
1533058064.802,961.6730844928206,980.2438883929857,850.8714126246804,993.5974862272051,1193.521852036024
1533058064.806,912.5361537540005,989.1024791960609,858.2559744577677,988.7953375834194,864.1741532681364
1533058064.81,896.1571768410604,989.1024791960609,856.6150540731938,972.0001053256758,945.7530250290072
1533058064.814,978.0520614057607,974.3421924040427,861.9486754768163,993.5974862272051,1093.811591800652
1533058064.8179998,1008.4667385463196,965.4836016009675,867.2822968804388,1043.9979285950433,1081.726062213382
1533058064.822,975.7087847204394,977.2930403985142,861.9486754768163,1041.5993118722517,1347.6262776949002
1533058064.826,921.8948845647002,959.5758587923638,854.97413368862,998.3996348709907,1386.9027018067297
1533058064.829,872.7579538258801,947.766419994817,848.4104521503247,928.7955131262123,936.6873307917565
1533058064.833,931.2536153754,968.434449595439,857.8459544128767,916.7975143140519,782.589093320073
1533058064.8370001,1001.4464924440794,971.3852975899105,861.9486754768163,972.0001053256758,879.2795182054257
1533058064.841,971.0318153035204,980.2438883929857,857.0259143230949,967.1979566818901,740.2866456710316
1533058064.845,935.9353767691807,1009.7705087966829,862.7687155665983,938.3998104137836,622.444996961158
1533058064.849,924.2333692731598,1003.8627659880791,855.795013983412,909.5967489474747,800.7204817945743
1533058064.853,975.7087847204394,995.0102220046647,850.4613925797895,907.198132224683,843.0229294436157
1533058064.857,1062.2854306789204,1015.6782516052866,851.6922929194724,962.3958080381045,882.299353555445
1533058064.861,1015.4869846485599,1036.3462812059086,853.7432333489371,988.7953375834194,982.0158019780098
1533058064.865,949.9710769967996,1027.487690402833,850.8714126246804,957.5985745925213,788.6349522073043
1533058064.869,940.6123461860999,1009.7705087966829,839.7949899775546,902.3959835808975,867.1939886181557
1533058064.8720002,968.6885386181992,992.0533271905324,838.9741096827626,890.397984768737,1087.7719211006133
1533058064.8760002,1041.2246923721998,1003.8627659880791,845.5386314260679,950.397809225944,670.7933034974308
1533058064.88,1017.8254693570194,1012.7213567911543,853.3332133040462,979.1959554940505,731.2209514337809
1533058064.8839998,961.6730844928206,1006.8196608022114,856.2050340283029,950.397809225944,1226.7647936350074
1533058064.8879998,931.2536153754,1018.6290995997581,848.4104521503247,912.0002808684687,836.9770705563843
1533058064.8920002,945.2941075798806,1030.438538397305,855.384153733511,899.9973668581058,691.9445273219515
1533058064.8960001,1029.5274768530403,1015.6782516052866,854.1540935988381,919.1961310368436,1036.4037792143213
1533058064.9,1013.1484999401002,997.9610699991362,846.3586715158499,945.5956605821584,661.7276092601801
1533058064.904,924.2333692731598,989.1024791960609,850.8714126246804,959.9971913153129,528.7805956130173
1533058064.908,884.4551693450394,965.4836016009675,845.127771176167,919.1961310368436,525.7545720758053
1533058064.9120002,910.1928770686793,947.766419994817,840.6150300673364,883.1972194021598,643.5962207856787
1533058064.915,1003.7897691294005,935.9569811972701,843.8977110414942,904.7995155018915,413.9587822531632
1533058064.919,1003.7897691294005,921.1966944052521,839.7949899775546,955.1999578697297,426.0443118404332
1533058064.9229999,924.2333692731598,921.1966944052521,844.307731086385,979.1959554940505,882.299353555445
1533058064.927,875.0964385343397,933.0061332027988,854.5641136437291,955.1999578697297,568.0570197248467
1533058064.931,910.1928770686793,947.766419994817,857.4359343679857,945.5956605821584,888.3452124426764
1533058064.935,1006.12825383786,962.5327536064958,856.2050340283029,959.9971913153129,1208.633405160506
1533058064.939,1034.2044462699594,968.434449595439,853.3332133040462,1000.7982515937823,589.2082435493674
1533058064.9429998,971.0318153035204,965.4836016009675,857.8459544128767,1005.5954850393655,465.32692413945523
1533058064.947,933.5921000838596,989.1024791960609,857.8459544128767,957.5985745925213,767.4837283827836
1533058064.951,954.6528383905803,1000.9119179936076,859.8977350473516,928.7955131262123,613.3793027239074
1533058064.954,1006.12825383786,977.2930403985142,867.2822968804388,923.9982796806291,716.1155864964916
1533058064.958,1020.1687460423406,971.3852975899105,875.076878758417,959.9971913153129,788.6349522073043
1533058064.9620001,959.3298078074995,977.2930403985142,881.6405602967124,983.9981041378362,924.6018012044865
1533058064.966,910.1928770686793,983.200783207118,875.896918848199,940.7984271365752,870.213823968175
1533058064.97,910.1928770686793,1000.9119179936076,877.1278191878819,923.9982796806291,800.7204817945743
1533058064.974,942.9508308945594,1006.8196608022114,883.6923409311872,945.5956605821584,577.1227139620974
1533058064.978,973.3703000119799,1006.8196608022114,877.1278191878819,976.797338771259,734.2469749709928
1533058064.982,964.0115692012802,1009.7705087966829,874.6668587135262,969.5965734046817,1042.44344991436
1533058064.986,907.8543923602198,980.2438883929857,879.5896198672476,923.9982796806291,927.6278247416984
1533058064.99,872.7579538258801,941.8647240058741,867.2822968804388,868.7956886690052,1021.2922260898392
1533058064.994,931.2536153754,941.8647240058741,862.3586955217073,875.9964540355825,1260.0015470467981
1533058064.9970002,973.3703000119799,950.7172679892885,868.9232172650127,921.5996629578375,1087.7719211006133
1533058065.0010002,910.1928770686793,935.9569811972701,870.5641376495865,928.7955131262123,755.3981987955135
1533058065.005,863.3992230151803,927.0983903941949,861.1277951820244,912.0002808684687,876.2596828554064
1533058065.0089998,849.3587308106999,927.0983903941949,846.7686915607409,866.3970719462137,821.871705619095
1533058065.0129998,905.5159076517602,912.3381036021768,849.2304922401066,868.7956886690052,1024.3182496270513
1533058065.0170002,954.6528383905803,909.3872556077054,854.5641136437291,887.9993680459454,1096.8314271506713
1533058065.0210001,882.1166846365799,912.3381036021768,859.4868747974506,887.9993680459454,994.1013315652799
1533058065.025,823.6210230870599,909.3872556077054,867.6923169253298,890.397984768737,954.8187192662579
1533058065.029,830.6412691893001,906.4303607935731,863.9996159062812,880.7986026793682,1130.068180562462
1533058065.033,889.1369307388202,924.1475423997235,864.4104761561821,892.7966014915286,861.1481297309243
1533058065.0370002,940.6123461860999,900.5286648046301,869.3332373099037,931.1990450472064,682.8788330847008
1533058065.04,905.5159076517602,888.7192260070834,872.2050580341603,943.1970438593668,1145.179733686944
1533058065.044,847.0202461022402,912.3381036021768,873.0250981239423,909.5967489474747,1081.726062213382
