timestamps,TP9,AF7,AF8,TP10,Right AUX
1533045067.911,1099.6871789902123,858.2559744577677,858.2559744577677,1040.2633916764432,665.816976547246
1533045067.915,1181.8338986335884,829.5386074202105,854.1540935988381,1056.9539064566225,422.578370595227
1533045067.919,1205.6796201182285,859.8977350473516,853.7432333489371,1084.769532283112,645.202676724907
1533045067.9229999,1173.8835158445586,900.9232652767275,856.6150540731938,1109.7996080319542,595.7292014805918
1533045067.927,1139.433666052912,872.6150780790513,858.6668347076687,1118.1448654220437,441.1282852827875
1533045067.931,1123.532900474852,828.3077070805276,859.4868747974506,1104.2399007195122,597.7935866153703
1533045067.934,1176.5318344800853,828.3077070805276,856.6150540731938,1115.3650117658228,719.4107787681336
1533045067.938,1213.6300029072584,870.1541176046956,863.1795758164992,1162.6510060287126,655.5119374593227
1533045067.9420002,1197.7292373291987,914.4614886032192,866.8714366305378,1148.7403449047545,616.3435013029308
1533045067.946,1152.6806861129955,909.9487474943886,857.8459544128767,1115.3650117658228,939.9749214095274
1533045067.95,1144.7357302064154,864.8204962010731,852.5123330092542,1107.0197543757333,865.7668193663008
1533045067.954,1208.3279387537552,862.3586955217073,857.0259143230949,1095.8946433294227,715.2904517915613
1533045067.958,1216.278321542785,820.5122849975394,849.6405122849975,1118.1448654220437,684.3711128812988
1533045067.9620001,1144.7357302064154,830.3586475099925,851.2822728745814,1095.8946433294227,645.202676724907
1533045067.966,1110.2858804147688,911.1796478340715,867.2822968804388,1107.0197543757333,748.2699541901098
1533045067.97,1115.5879445682722,884.1023609760782,861.1277951820244,1090.329239595554,645.202676724907
1533045067.9729998,1171.229770326582,868.9232172650127,854.97413368862,1090.329239595554,709.1057396802103
1533045067.9770002,1248.079852698905,871.7950379892694,857.8459544128767,1162.6510060287126,690.5516033461574
1533045067.981,1248.079852698905,905.4360063855581,866.051396540756,1157.085602294844,775.0689661237998
1533045067.985,1271.925574183545,883.2823208862962,865.6405362908549,1168.2107133411546,750.3301176783959
1533045067.9889998,1271.925574183545,838.1540695929807,868.1023369702208,1179.3358243874652,585.4241623926684
1533045067.9929998,1256.024808605485,880.4105001620395,861.5386554319253,1145.9604912485336,696.7363154575083
1533045067.9970002,1271.925574183545,840.6150300673364,846.7686915607409,1118.1448654220437,570.9945746816803
1533045068.0010002,1279.8759569725748,854.1540935988381,861.9486754768163,1204.371596557734,773.0088026355136
1533045068.005,1322.2707626708013,917.333309327476,869.3332373099037,1279.4675202256867,939.9749214095274
1533045068.0089998,1165.9331330555287,873.8459784187341,852.9231932591553,1093.1147896732018,680.2465642582341
1533045068.0129998,1051.9903091384824,859.8977350473516,848.4104521503247,959.6020642746217,620.4680499259955
1533045068.016,1168.5814516910552,877.9486994826738,854.97413368862,1018.0131695838222,606.0384622150075
1533045068.02,1118.236263203799,893.5387034436402,861.9486754768163,992.9773974135534,420.51820710694085
1533045068.024,1104.9838162612657,863.9996159062812,852.1023129643633,979.0724327110219,414.3334949955899
1533045068.0279999,1155.334431630972,842.6668107018112,846.7686915607409,987.4176901011115,426.6986975717994
1533045068.032,1139.433666052912,880.4105001620395,850.4613925797895,995.7629474912011,488.5415970388165
1533045068.036,1184.4822172691152,849.2304922401066,847.9995919004238,1045.8287954103118,558.6251504589784
1533045068.04,1142.0819846884388,866.4614165856469,852.5123330092542,995.7629474912011,704.9811910571456
1533045068.044,1131.4832832638822,933.7433533782242,859.8977350473516,1009.6679121937326,773.0088026355136
1533045068.0479999,1128.8349646283555,900.1023849819356,858.6668347076687,1034.7036843640012,585.4241623926684
1533045068.052,1078.489776141099,893.5387034436402,846.3586715158499,954.0366605407531,564.8098625703294
1533045068.056,1171.229770326582,886.154141610553,844.717751131276,1020.7930232400431,704.9811910571456
1533045068.059,1187.1305359046419,900.1023849819356,857.4359343679857,1087.5493859393332,867.8312045010792
1533045068.063,1160.6310689020254,921.8460504363064,860.7177751371335,1081.9839822054646,917.3004580989021
1533045068.0670002,1184.4822172691152,871.7950379892694,851.2822728745814,1093.1147896732018,773.0088026355136
1533045068.071,1152.6806861129955,824.615006061479,846.7686915607409,1093.1147896732018,465.8671337281913
1533045068.075,1157.9827502664987,835.282248868724,852.1023129643633,1062.5136137690642,391.65903168496465
1533045068.079,1216.278321542785,884.5123810209691,860.3077550922425,1065.299163846712,472.05184583954224
1533045068.083,1197.7292373291987,956.717919172278,869.7432573547945,1104.2399007195122,733.8403664791217
1533045068.0870001,1197.7292373291987,936.615174102481,863.5895958613902,1098.6744969856436,764.7597053893841
1533045068.091,1173.8835158445586,894.7687635783132,858.2559744577677,1079.2041285492435,513.2762238377279
1533045068.095,1184.4822172691152,891.8969428540564,854.97413368862,1062.5136137690642,583.3639989043822
1533045068.0979998,1226.8770229673419,879.5896198672476,856.2050340283029,1076.4242748930226,715.2904517915613
1533045068.1020002,1213.6300029072584,924.7178711605632,866.051396540756,1093.1147896732018,618.403664791217
1533045068.106,1226.8770229673419,949.3333573391908,864.4104761561821,1112.5794616881751,573.0547381699665
1533045068.11,1187.1305359046419,913.2305882635363,854.97413368862,1126.4901228121334,601.9139135919427
1533045068.1139998,1203.0313014827018,913.6406083084272,858.6668347076687,1132.0498301245752,715.2904517915613
1533045068.1179998,1295.7767225506348,937.025194147372,867.6923169253298,1190.4609354337756,917.3004580989021
1533045068.1220002,1290.4746583971314,955.4870188325951,863.1795758164992,1207.1514502139548,847.2169046787402
1533045068.1260002,1229.5307684853183,951.7943178135465,858.2559744577677,1209.931303870176,494.7263091501675
1533045068.13,1173.8835158445586,958.7688596017429,859.4868747974506,1165.4308596849337,404.0242342611742
1533045068.1339998,1237.4757243918984,952.6151981083384,850.8714126246804,1115.3650117658228,533.890523660067
1533045068.1379998,1295.7767225506348,957.127939217169,856.2050340283029,1165.4308596849337,665.816976547246
1533045068.141,1226.8770229673419,991.1797678633586,863.5895958613902,1196.0263391676444,906.9954190109788
1533045068.145,1213.6300029072584,953.8460984480213,852.9231932591553,1193.2464855114233,797.743429434425
1533045068.149,1189.7788545401686,905.0251461356571,844.307731086385,1123.7102691559123,531.8303601717809
1533045068.1529999,1171.229770326582,909.5387274494976,853.7432333489371,1107.0197543757333,591.6088745040194
1533045068.157,1237.4757243918984,882.8714606363952,854.5641136437291,1112.5794616881751,702.9210275688594
1533045068.161,1226.8770229673419,926.768811590028,856.6150540731938,1090.329239595554,770.944417500735
1533045068.165,1160.6310689020254,956.307899127387,857.4359343679857,1107.0197543757333,775.0689661237998
1533045068.169,1179.180153115612,913.2305882635363,850.8714126246804,1112.5794616881751,686.431276369585
1533045068.1729999,1168.5814516910552,948.5124770443988,857.4359343679857,1090.329239595554,764.7597053893841
1533045068.177,1229.5307684853183,918.9742297120497,861.1277951820244,1093.1147896732018,902.870870387914
1533045068.181,1253.3764899699584,916.1024089877931,858.2559744577677,1134.835380202223,723.5353273911984
1533045068.184,1179.180153115612,996.5125490619711,856.2050340283029,1098.6744969856436,785.3740052117231
1533045068.188,1136.7853474173853,975.9997839472832,852.9231932591553,1079.2041285492435,768.8842540124489
1533045068.1920002,1099.6871789902123,957.53795926206,850.0513725348985,1084.769532283112,793.6188808113602
1533045068.196,1160.6310689020254,945.6406563201422,851.2822728745814,1104.2399007195122,686.431276369585
1533045068.2,1197.7292373291987,968.205202069305,857.0259143230949,1137.6152338584438,630.7730890139188
1533045068.204,1195.080918693672,971.8970628833436,854.5641136437291,1118.1448654220437,659.6322644358951
1533045068.208,1139.433666052912,902.1533254114004,846.3586715158499,1107.0197543757333,379.2896074622628
1533045068.2120001,1120.8845818393256,849.2304922401066,849.6405122849975,1107.0197543757333,502.97118474980465
1533045068.216,1179.180153115612,841.0258903172374,860.3077550922425,1104.2399007195122,773.0088026355136
1533045068.22,1213.6300029072584,880.8205202069305,863.5895958613902,1101.4543506418647,845.1525195439617
1533045068.2229998,1179.180153115612,950.9742777237645,863.9996159062812,1081.9839822054646,810.112853657127
1533045068.2270002,1165.9331330555287,923.8969908657713,857.4359343679857,1093.1147896732018,636.9578011252698
1533045068.231,1128.8349646283555,883.2823208862962,853.3332133040462,1051.3885027227539,486.477211904038
1533045068.235,1187.1305359046419,877.1278191878819,852.1023129643633,1062.5136137690642,573.0547381699665
1533045068.2389998,1348.770229673418,906.666906725241,854.5641136437291,1184.9012281213338,686.431276369585
1533045068.2429998,1354.0722938269212,940.3078751215296,860.7177751371335,1248.8720407429762,880.1964070772888
1533045068.2470002,1189.7788545401686,900.1023849819356,861.9486754768163,1173.7761170750232,845.1525195439617
1533045068.2510002,1038.7378621959492,862.3586955217073,862.3586955217073,1012.4477658499535,533.890523660067
1533045068.255,1006.9417579222793,841.4359103621283,861.9486754768163,962.3819179308427,538.0150722831318
1533045068.2589998,1086.434732047679,835.692268913615,861.5386554319253,1118.1448654220437,616.3435013029308
1533045068.2629998,1059.9406919275123,861.1277951820244,863.1795758164992,1134.835380202223,480.2967214391794
1533045068.266,1044.0399263494526,867.2822968804388,865.6405362908549,1101.4543506418647,383.40993443883514
1533045068.27,1038.7378621959492,846.7686915607409,862.7687155665983,1134.835380202223,525.6456480604298
1533045068.274,1049.3365636205058,853.3332133040462,861.5386554319253,1107.0197543757333,742.0852420787588
1533045068.2779999,1142.0819846884388,822.9740856769051,863.5895958613902,1109.7996080319542,775.0689661237998
1533045068.282,1115.5879445682722,864.4104761561821,861.5386554319253,1134.835380202223,597.7935866153703
1533045068.286,1083.7864134121523,915.6923889429021,859.8977350473516,1101.4543506418647,713.2260666567827
1533045068.29,1094.385114836709,873.0250981239423,866.4614165856469,1120.9247190782648,869.8913679893654
1533045068.294,1102.335497625739,848.4104521503247,869.3332373099037,1151.5201985609754,711.1659031684965
1533045068.2979999,1115.5879445682722,872.6150780790513,862.7687155665983,1143.1806375923125,791.558717323074
1533045068.302,1097.0388603546855,896.8205442127879,857.8459544128767,1137.6152338584438,754.4546663014607
1533045068.306,1112.9341990502955,863.1795758164992,854.5641136437291,1157.085602294844,783.3138417234369
1533045068.309,1097.0388603546855,852.5123330092542,855.384153733511,1123.7102691559123,836.9076439443245
1533045068.313,1073.1877119875958,874.2559984636251,858.6668347076687,1079.2041285492435,531.8303601717809
1533045068.3170002,1136.7853474173853,833.6413284841501,858.6668347076687,1123.7102691559123,488.5415970388165
1533045068.321,1163.284814420002,859.0768547525596,864.8204962010731,1143.1806375923125,560.689535593757
1533045068.325,1128.8349646283555,927.9997119297109,864.4104761561821,1118.1448654220437,822.4780562333365
1533045068.329,1128.8349646283555,888.6151020849087,859.4868747974506,1104.2399007195122,783.3138417234369
1533045068.333,1110.2858804147688,869.7432573547945,857.4359343679857,1076.4242748930226,587.4843258809545
1533045068.3370001,1083.7864134121523,881.2305402518215,856.2050340283029,1023.5728768962641,824.542441368115
1533045068.341,1123.532900474852,895.589643873105,859.4868747974506,1081.9839822054646,727.6556543677707
1533045068.345,1157.9827502664987,892.3078031039573,861.5386554319253,1115.3650117658228,368.98034672784706
1533045068.3479998,1128.8349646283555,873.0250981239423,863.9996159062812,1104.2399007195122,603.9782987267213
1533045068.3520002,1110.2858804147688,834.0513485290411,853.7432333489371,1081.9839822054646,731.7802029908355
1533045068.356,1200.382982847175,808.2049620107306,858.6668347076687,1123.7102691559123,614.2833378146446
1533045068.36,1203.0313014827018,859.8977350473516,864.4104761561821,1151.5201985609754,740.0250785904726
1533045068.3639998,1104.9838162612657,928.8205922245028,855.795013983412,1079.2041285492435,752.3945028131745
1533045068.3679998,1036.0895435604225,897.6405843025698,853.7432333489371,1037.4835380202223,694.6761519692221
1533045068.3720002,1046.688244984979,870.5641376495865,852.5123330092542,1029.1382806301326,820.4178927450503
1533045068.3760002,1089.0884775656557,847.9995919004238,844.717751131276,1079.2041285492435,717.3506152798474
1533045068.38,1118.236263203799,875.076878758417,847.5895718555328,1062.5136137690642,700.8608640805732
1533045068.3839998,1147.384048841942,891.4869228091654,855.795013983412,1070.858871159154,791.558717323074
1533045068.3879998,1131.4832832638822,860.3077550922425,855.384153733511,1095.8946433294227,527.705811548716
1533045068.391,1104.9838162612657,853.7432333489371,850.4613925797895,1043.0432453326641,575.1191233047451
1533045068.395,1115.5879445682722,838.1540695929807,848.8204721952156,1059.7337601128434,737.9649151021864
1533045068.399,1128.8349646283555,838.9741096827626,852.5123330092542,1065.299163846712,678.1864007699479
1533045068.4029999,1075.8360306231225,887.7950619951268,850.4613925797895,1034.7036843640012,830.7229318329736
1533045068.407,1059.9406919275123,888.2050820400177,849.2304922401066,1040.2633916764432,822.4780562333365
1533045068.411,1078.489776141099,854.97413368862,852.9231932591553,1018.0131695838222,560.689535593757
1533045068.415,1112.9341990502955,830.7695077598934,854.1540935988381,1020.7930232400431,651.387388836258
1533045068.419,1118.236263203799,812.3076830746702,849.2304922401066,1023.5728768962641,805.9883050340621
1533045068.4229999,1081.1380947766256,879.5896198672476,853.7432333489371,1029.1382806301326,618.403664791217
1533045068.427,1065.2373291985657,895.999663917996,853.3332133040462,1068.079017502933,482.35688492746556
1533045068.43,1017.540459346836,857.0259143230949,847.5895718555328,1006.8880585375116,593.6690379923056
1533045068.434,1044.0399263494526,847.9995919004238,850.4613925797895,976.292579054801,824.542441368115
1533045068.438,1115.5879445682722,850.4613925797895,849.6405122849975,1059.7337601128434,921.4250067219668
1533045068.4420002,1067.8856478340924,868.1023369702208,859.4868747974506,1084.769532283112,620.4680499259955
1533045068.446,1051.9903091384824,859.8977350473516,857.4359343679857,1070.858871159154,606.0384622150075
1533045068.45,1046.688244984979,836.5123090033968,845.9486514709589,1031.9181342863537,550.3802748593413
1533045068.454,1073.1877119875958,853.3332133040462,849.2304922401066,998.542801147422,325.6958052413751
1533045068.458,1147.384048841942,834.0513485290411,849.6405122849975,995.7629474912011,597.7935866153703
1533045068.4620001,1131.4832832638822,870.1541176046956,853.7432333489371,1004.102508459864,651.387388836258
1533045068.466,1099.6871789902123,930.0514925641857,866.4614165856469,1051.3885027227539,725.5954908794846
1533045068.47,1081.1380947766256,886.154141610553,864.8204962010731,1043.0432453326641,904.9352555226926
1533045068.4729998,1078.489776141099,853.3332133040462,852.5123330092542,1004.102508459864,892.5658312999907
1533045068.4770002,1120.8845818393256,859.0768547525596,852.5123330092542,1029.1382806301326,727.6556543677707
1533045068.481,1139.433666052912,882.0514205466134,860.3077550922425,1073.6444212368017,540.075235771418
1533045068.485,1112.9341990502955,894.7687635783132,858.6668347076687,1068.079017502933,636.9578011252698
1533045068.4889998,1070.539393352069,867.2822968804388,855.795013983412,1062.5136137690642,713.2260666567827
1533045068.4929998,1097.0388603546855,802.4613205622172,851.6922929194724,1068.079017502933,517.4007724607927
1533045068.4970002,1147.384048841942,829.9486274651015,855.384153733511,1073.6444212368017,533.890523660067
1533045068.5010002,1123.532900474852,907.0769267701319,864.8204962010731,1087.5493859393332,589.5487110157331
1533045068.505,1139.433666052912,911.5896678789625,862.7687155665983,1090.329239595554,593.6690379923056
1533045068.5089998,1139.433666052912,883.6923409311872,861.9486754768163,1065.299163846712,723.5353273911984
1533045068.5129998,1089.0884775656557,867.6923169253298,857.4359343679857,1029.1382806301326,698.7964789457945
1533045068.516,1144.7357302064154,829.1277471703096,847.1795518106418,1029.1382806301326,818.3577292567641
1533045068.52,1173.8835158445586,848.8204721952156,847.1795518106418,1018.0131695838222,956.468894255294
1533045068.524,1155.334431630972,904.2051060458751,854.5641136437291,1054.1740528004016,589.5487110157331
1533045068.5279999,1171.229770326582,876.7177991429909,852.9231932591553,1073.6444212368017,447.31299739413845
1533045068.532,1152.6806861129955,859.8977350473516,851.6922929194724,1034.7036843640012,581.2996137696036
1533045068.536,1184.4822172691152,845.5386314260679,854.97413368862,1076.4242748930226,653.4475523245441
1533045068.54,1232.179087120845,854.1540935988381,856.2050340283029,1120.9247190782648,690.5516033461574
1533045068.544,1184.4822172691152,883.6923409311872,852.5123330092542,1087.5493859393332,766.8240905241627
1533045068.5479999,1139.433666052912,882.4614405915044,857.8459544128767,1098.6744969856436,886.3811191886398
1533045068.552,1120.8845818393256,834.871388618823,853.3332133040462,1093.1147896732018,696.7363154575083
1533045068.555,1171.229770326582,796.3076590688128,847.1795518106418,1068.079017502933,488.5415970388165
1533045068.559,1192.4326000581452,860.7177751371335,854.97413368862,1043.0432453326641,562.7496990820432
1533045068.563,1118.236263203799,911.5896678789625,859.4868747974506,1043.0432453326641,665.816976547246
1533045068.5670002,1118.236263203799,874.2559984636251,856.2050340283029,1031.9181342863537,814.2331806336992
1533045068.571,1104.9838162612657,841.8459304070193,852.9231932591553,1009.6679121937326,643.1425132366207
1533045068.575,1136.7853474173853,810.2559024401954,853.7432333489371,1023.5728768962641,428.76308270657796
1533045068.579,1173.8835158445586,830.3586475099925,862.3586955217073,1054.1740528004016,746.2097907018236
1533045068.583,1168.5814516910552,892.3078031039573,864.4104761561821,1101.4543506418647,752.3945028131745
1533045068.5870001,1176.5318344800853,859.0768547525596,861.9486754768163,1112.5794616881751,632.833252502205
1533045068.591,1112.9341990502955,841.4359103621283,864.8204962010731,1073.6444212368017,737.9649151021864
1533045068.595,1081.1380947766256,850.8714126246804,860.3077550922425,1034.7036843640012,812.1730171454132
1533045068.5979998,1136.7853474173853,814.358623504135,857.8459544128767,1029.1382806301326,775.0689661237998
1533045068.6020002,1131.4832832638822,875.896918848199,859.4868747974506,1034.7036843640012,663.7568130589598
1533045068.606,1099.6871789902123,898.8714846422527,859.4868747974506,1020.7930232400431,781.2536782351507
1533045068.61,1078.489776141099,843.8977110414942,854.5641136437291,1009.6679121937326,762.6995419010979
1533045068.6139998,1065.2373291985657,839.7949899775546,853.7432333489371,1045.8287954103118,659.6322644358951
1533045068.6179998,1102.335497625739,855.795013983412,858.6668347076687,1029.1382806301326,577.1792867930312
1533045068.6220002,1126.1866459928287,890.2560224694826,864.4104761561821,1037.4835380202223,505.0313482380908
1533045068.6260002,1110.2858804147688,886.9741817003348,862.3586955217073,1045.8287954103118,641.0823497483345
1533045068.63,1046.688244984979,863.5895958613902,852.9231932591553,981.8522863672429,791.558717323074
1533045068.6339998,1044.0399263494526,824.615006061479,843.8977110414942,1048.6086490665327,805.9883050340621
1533045068.6379998,1115.5879445682722,792.2049380048732,847.1795518106418,1065.299163846712,674.0618521468831
1533045068.641,1081.1380947766256,863.5895958613902,863.1795758164992,990.1975437573325,690.5516033461574
1533045068.645,1091.7367962011822,922.2560704811974,863.9996159062812,1034.7036843640012,702.9210275688594
1533045068.649,1081.1380947766256,884.1023609760782,856.6150540731938,1018.0131695838222,731.7802029908355
1533045068.6529999,1033.4412249248958,855.795013983412,857.0259143230949,990.1975437573325,715.2904517915613
1533045068.657,1107.637561779242,861.1277951820244,858.6668347076687,1015.2333159276012,684.3711128812988
1533045068.661,1139.433666052912,900.1023849819356,871.3841777393684,1045.8287954103118,859.5821072549497
1533045068.665,1089.0884775656557,879.1795998223566,871.7950379892694,1034.7036843640012,799.8035929227112
1533045068.669,1025.490842135866,846.3586715158499,859.4868747974506,987.4176901011115,601.9139135919427
1533045068.6729999,1036.0895435604225,846.3586715158499,861.1277951820244,931.786438448132,589.5487110157331
1533045068.677,1091.7367962011822,855.795013983412,868.1023369702208,984.6378364448905,939.9749214095274
1533045068.68,1112.9341990502955,863.9996159062812,867.2822968804388,1059.7337601128434,950.2841821439431
1533045068.684,1123.532900474852,871.3841777393684,866.051396540756,1034.7036843640012,717.3506152798474
1533045068.688,1097.0388603546855,877.1278191878819,868.1023369702208,1006.8880585375116,688.4914398578712
1533045068.6920002,1073.1877119875958,872.6150780790513,868.5123570151117,1020.7930232400431,707.045576191924
1533045068.696,1168.5814516910552,827.4868267857357,864.8204962010731,1054.1740528004016,754.4546663014607
1533045068.7,1208.3279387537552,838.1540695929807,871.7950379892694,1054.1740528004016,711.1659031684965
1533045068.704,1128.8349646283555,928.4097319746018,879.1795998223566,1051.3885027227539,797.743429434425
1533045068.708,1099.6871789902123,912.4105481737544,875.896918848199,1090.329239595554,777.129129612086
1533045068.7120001,1089.0884775656557,873.4359583738432,872.2050580341603,1079.2041285492435,595.7292014805918
1533045068.716,1073.1877119875958,861.1277951820244,864.4104761561821,1037.4835380202223,762.6995419010979
1533045068.72,1102.335497625739,870.5641376495865,867.2822968804388,1029.1382806301326,791.558717323074
1533045068.7229998,1070.539393352069,892.7178231488483,869.7432573547945,1009.6679121937326,731.7802029908355
1533045068.7270002,1020.1887779823626,873.4359583738432,863.9996159062812,1034.7036843640012,859.5821072549497
1533045068.731,1033.4412249248958,859.0768547525596,859.0768547525596,1065.299163846712,876.0760801007165
1533045068.735,1049.3365636205058,848.4104521503247,859.0768547525596,1009.6679121937326,775.0689661237998
1533045068.7389998,1091.7367962011822,871.7950379892694,870.9741576944774,1029.1382806301326,861.6464923897283
1533045068.7429998,1128.8349646283555,920.6151500966236,873.4359583738432,1112.5794616881751,795.6832659461388
1533045068.7470002,1097.0388603546855,891.0769027642745,862.7687155665983,1098.6744969856436,624.5883769025679
1533045068.7510002,1062.589010563039,857.4359343679857,857.4359343679857,1051.3885027227539,465.8671337281913
1533045068.755,1078.489776141099,830.3586475099925,862.3586955217073,1065.299163846712,630.7730890139188
1533045068.7589998,1110.2858804147688,831.5895478496753,864.8204962010731,1059.7337601128434,799.8035929227112
1533045068.762,1134.1370287818588,904.6151260907661,870.1541176046956,1068.079017502933,803.9281415457759
1533045068.766,1112.9341990502955,904.2051060458751,871.7950379892694,1076.4242748930226,568.9344111933941
1533045068.77,1112.9341990502955,866.4614165856469,872.6150780790513,1054.1740528004016,465.8671337281913
1533045068.774,1102.335497625739,841.0258903172374,866.8714366305378,1054.1740528004016,793.6188808113602
1533045068.7779999,1120.8845818393256,807.3849219209487,852.1023129643633,1031.9181342863537,795.6832659461388
1533045068.782,1126.1866459928287,871.7950379892694,862.7687155665983,1031.9181342863537,564.8098625703294
1533045068.786,1089.0884775656557,927.1796718399289,872.2050580341603,1031.9181342863537,768.8842540124489
1533045068.79,1067.8856478340924,882.8714606363952,860.7177751371335,1037.4835380202223,805.9883050340621
1533045068.794,1059.9406919275123,852.5123330092542,859.4868747974506,1015.2333159276012,731.7802029908355
1533045068.7979999,1128.8349646283555,867.2822968804388,862.3586955217073,995.7629474912011,818.3577292567641
1533045068.802,1155.334431630972,909.9487474943886,868.1023369702208,1062.5136137690642,729.7200395025493
1533045068.805,1094.385114836709,906.25604647534,873.0250981239423,1087.5493859393332,632.833252502205
1533045068.809,1070.539393352069,877.1278191878819,858.6668347076687,1034.7036843640012,731.7802029908355
1533045068.813,1089.0884775656557,843.0768307467022,852.9231932591553,1051.3885027227539,725.5954908794846
1533045068.8170002,1139.433666052912,856.6150540731938,859.4868747974506,1084.769532283112,696.7363154575083
1533045068.821,1155.334431630972,891.4869228091654,857.4359343679857,1084.769532283112,859.5821072549497
1533045068.825,1118.236263203799,886.564161655444,861.1277951820244,1098.6744969856436,746.2097907018236
1533045068.829,1115.5879445682722,898.4614645973618,862.3586955217073,1084.769532283112,787.4383903465017
1533045068.833,1104.9838162612657,854.1540935988381,855.795013983412,1070.858871159154,723.5353273911984
1533045068.8370001,1155.334431630972,831.1795278047844,855.384153733511,1051.3885027227539,659.6322644358951
1533045068.841,1197.7292373291987,900.5124050268265,869.3332373099037,1062.5136137690642,669.9415251703108
1533045068.845,1147.384048841942,923.0769507759893,871.3841777393684,1095.8946433294227,836.9076439443245
1533045068.8479998,1134.1370287818588,884.5123810209691,857.4359343679857,1079.2041285492435,882.256570565575
1533045068.8520002,1139.433666052912,853.7432333489371,854.1540935988381,1081.9839822054646,824.542441368115
1533045068.856,1173.8835158445586,824.615006061479,852.5123330092542,1101.4543506418647,665.816976547246
1533045068.86,1184.4822172691152,873.4359583738432,863.5895958613902,1090.329239595554,659.6322644358951
1533045068.8639998,1173.8835158445586,891.8969428540564,863.9996159062812,1093.1147896732018,544.1955627479903
1533045068.8679998,1179.180153115612,835.692268913615,857.4359343679857,1101.4543506418647,401.96407077288796
1533045068.8720002,1110.2858804147688,830.3586475099925,860.3077550922425,1059.7337601128434,610.1587891915798
1533045068.8760002,1112.9341990502955,819.2822248628665,861.1277951820244,1034.7036843640012,548.3201113710551
1533045068.88,1179.180153115612,814.358623504135,861.9486754768163,1004.102508459864,721.4751639029122
1533045068.8839998,1120.8845818393256,903.7950860009843,868.5123570151117,1004.102508459864,1131.6841102754372
1533045068.887,1126.1866459928287,928.8205922245028,866.8714366305378,1076.4242748930226,880.1964070772888
1533045068.891,1104.9838162612657,863.5895958613902,857.4359343679857,1059.7337601128434,614.2833378146446
1533045068.895,1099.6871789902123,842.6668107018112,857.0259143230949,1045.8287954103118,789.4985538347879
1533045068.899,1160.6310689020254,876.7177991429909,865.6405362908549,1090.329239595554,830.7229318329736
1533045068.9029999,1136.7853474173853,905.846026430449,866.4614165856469,1098.6744969856436,649.3272253479718
1533045068.907,1142.0819846884388,884.5123810209691,860.3077550922425,1090.329239595554,628.7129255256327
1533045068.911,1123.532900474852,864.4104761561821,858.2559744577677,1073.6444212368017,655.5119374593227
1533045068.915,1150.0323674774688,812.7177031195612,850.4613925797895,1079.2041285492435,562.7496990820432
1533045068.919,1208.3279387537552,802.4613205622172,846.7686915607409,1040.2633916764432,443.1926704175661
1533045068.9229999,1152.6806861129955,911.9996879238535,858.2559744577677,992.9773974135534,818.3577292567641
1533045068.927,1165.9331330555287,934.5642336730162,861.5386554319253,1018.0131695838222,1094.5758376073316
1533045068.93,1179.180153115612,880.4105001620395,855.795013983412,1031.9181342863537,886.3811191886398
1533045068.934,1083.7864134121523,841.0258903172374,850.8714126246804,1029.1382806301326,669.9415251703108
1533045068.938,1115.5879445682722,856.2050340283029,854.5641136437291,1009.6679121937326,721.4751639029122
1533045068.9420002,1195.080918693672,902.9742057061923,858.6668347076687,1048.6086490665327,737.9649151021864
1533045068.946,1176.5318344800853,877.9486994826738,854.1540935988381,1109.7996080319542,575.1191233047451
1533045068.95,1155.334431630972,851.2822728745814,858.2559744577677,1062.5136137690642,589.5487110157331
1533045068.954,1150.0323674774688,849.2304922401066,857.0259143230949,1031.9181342863537,812.1730171454132
1533045068.958,1213.6300029072584,854.5641136437291,859.0768547525596,1070.858871159154,942.0393065443059
1533045068.9620001,1205.6796201182285,864.8204962010731,863.9996159062812,1140.395087514665,909.055582499265
1533045068.966,1171.229770326582,867.2822968804388,859.8977350473516,1157.085602294844,758.5792149245256
1533045068.97,1179.180153115612,860.7177751371335,863.9996159062812,1132.0498301245752,591.6088745040194
1533045068.9729998,1150.0323674774688,836.5123090033968,866.4614165856469,1104.2399007195122,564.8098625703294
1533045068.9770002,1200.382982847175,854.1540935988381,868.5123570151117,1118.1448654220437,672.001688658597
1533045068.981,1221.5803856962884,906.666906725241,869.7432573547945,1115.3650117658228,904.9352555226926
1533045068.985,1160.6310689020254,896.8205442127879,859.8977350473516,1076.4242748930226,762.6995419010979
1533045068.9889998,1115.5879445682722,867.2822968804388,858.6668347076687,1087.5493859393332,682.3067277465203
1533045068.9929998,1083.7864134121523,852.1023129643633,855.384153733511,1107.0197543757333,692.615988480936
1533045068.9970002,1142.0819846884388,798.3585994982776,846.3586715158499,1104.2399007195122,566.8700260586155
1533045069.0010002,1171.229770326582,836.1022889585058,854.5641136437291,1079.2041285492435,657.5721009476089
1533045069.005,1160.6310689020254,895.589643873105,867.2822968804388,1134.835380202223,612.2231743263584
1533045069.0089998,1205.6796201182285,864.4104761561821,863.1795758164992,1187.6810817775547,715.2904517915613
1533045069.012,1155.334431630972,845.9486514709589,860.7177751371335,1134.835380202223,587.4843258809545
1533045069.016,1136.7853474173853,812.3076830746702,860.3077550922425,1101.4543506418647,428.76308270657796
1533045069.02,1184.4822172691152,838.5640896378717,859.4868747974506,1134.835380202223,630.7730890139188
1533045069.024,1195.080918693672,921.0251701415145,865.230516245964,1143.1806375923125,756.514829789747
1533045069.0279999,1152.6806861129955,899.6923649370447,864.8204962010731,1107.0197543757333,676.1220156351693
1533045069.032,1160.6310689020254,859.4868747974506,863.9996159062812,1148.7403449047545,661.6924279241813
1533045069.036,1237.4757243918984,828.3077070805276,862.3586955217073,1215.4967076040446,603.9782987267213
1533045069.04,1150.0323674774688,868.9232172650127,863.9996159062812,1056.9539064566225,676.1220156351693
1533045069.044,1030.792906289369,895.589643873105,863.1795758164992,934.566292104353,692.615988480936
1533045069.0479999,1022.8425235003392,861.9486754768163,861.5386554319253,912.3160700117319,579.2394502813174
1533045069.052,964.5469522240527,841.4359103621283,860.3077550922425,898.4111053092004,577.1792867930312
1533045069.055,953.9428239170462,792.6149580497641,857.0259143230949,931.786438448132,711.1659031684965
1533045069.059,1006.9417579222793,784.8203761717859,857.0259143230949,906.75636269929,540.075235771418
1533045069.063,988.3926737086927,875.076878758417,862.3586955217073,903.9708126216424,451.4375460172032
1533045069.0670002,1033.4412249248958,907.4869468150229,864.8204962010731,962.3819179308427,692.615988480936
1533045069.071,1081.1380947766256,868.1023369702208,860.7177751371335,984.6378364448905,505.0313482380908
1533045069.075,1044.0399263494526,819.2822248628665,859.0768547525596,984.6378364448905,416.3936584838761
1533045069.079,1067.8856478340924,843.4868507915932,863.1795758164992,1006.8880585375116,472.05184583954224
1533045069.083,1131.4832832638822,907.4869468150229,862.7687155665983,1048.6086490665327,698.7964789457945
1533045069.0870001,1157.9827502664987,889.0251221297997,860.3077550922425,1098.6744969856436,871.9515314776517
1533045069.091,1073.1877119875958,847.9995919004238,855.384153733511,1079.2041285492435,515.3363873260141
1533045069.095,1081.1380947766256,813.948603459244,852.1023129643633,1048.6086490665327,465.8671337281913
1533045069.0979998,1210.9816842717319,839.3841297276535,855.795013983412,1112.5794616881751,787.4383903465017
1533045069.1020002,1208.3279387537552,857.4359343679857,854.5641136437291,1162.6510060287126,690.5516033461574
1533045069.106,1179.180153115612,847.5895718555328,857.0259143230949,1143.1806375923125,492.66192401538893
1533045069.11,1147.384048841942,870.5641376495865,858.2559744577677,1129.2699764683543,622.5282134142817
1533045069.1139998,1120.8845818393256,855.384153733511,853.3332133040462,1143.1806375923125,921.4250067219668
1533045069.1179998,1181.8338986335884,791.7949179599823,847.1795518106418,1098.6744969856436,851.3372316553126
1533045069.1220002,1232.179087120845,850.4613925797895,855.384153733511,1095.8946433294227,729.7200395025493
1533045069.1260002,1208.3279387537552,914.0514685583282,859.0768547525596,1148.7403449047545,669.9415251703108
1533045069.13,1128.8349646283555,886.564161655444,859.8977350473516,1148.7403449047545,744.1496272135374
1533045069.1339998,1147.384048841942,862.7687155665983,857.0259143230949,1184.9012281213338,925.5453336985393
1533045069.137,1245.4261071809283,853.3332133040462,852.5123330092542,1173.7761170750232,859.5821072549497
1533045069.141,1285.1780211260782,892.7178231488483,861.1277951820244,1187.6810817775547,678.1864007699479
1533045069.145,1229.5307684853183,891.0769027642745,858.2559744577677,1204.371596557734,723.5353273911984
1533045069.149,1179.180153115612,827.8976870356367,853.7432333489371,1204.371596557734,641.0823497483345
1533045069.1529999,1218.9266401783118,819.2822248628665,850.8714126246804,1234.9670760404447,494.7263091501675
1533045069.157,1234.8274057563717,804.513101196692,845.9486514709589,1187.6810817775547,424.6385340835132
1533045069.161,1203.0313014827018,850.0513725348985,857.8459544128767,1145.9604912485336,548.3201113710551
1533045069.165,1165.9331330555287,936.615174102481,863.5895958613902,1170.9905669973755,717.3506152798474
1533045069.169,1152.6806861129955,897.6405843025698,858.2559744577677,1165.4308596849337,548.3201113710551
1533045069.1729999,1150.0323674774688,834.4613685739321,850.4613925797895,1140.395087514665,416.3936584838761
1533045069.177,1221.5803856962884,828.3077070805276,852.9231932591553,1184.9012281213338,441.1282852827875
1533045069.18,1287.826339761605,892.3078031039573,861.5386554319253,1251.6575908206237,694.6761519692221
1533045069.184,1269.2772555480183,910.3587675392796,864.8204962010731,1259.9971517892866,876.0760801007165
1533045069.188,1229.5307684853183,894.3587435334222,861.5386554319253,1184.9012281213338,898.7505434113417
1533045069.1920002,1152.6806861129955,859.4868747974506,857.4359343679857,1129.2699764683543,917.3004580989021
1533045069.196,1163.284814420002,795.8976390239218,854.97413368862,1118.1448654220437,768.8842540124489
1533045069.2,1253.3764899699584,834.4613685739321,850.8714126246804,1140.395087514665,626.6527620373465
1533045069.204,1216.278321542785,896.4105241678969,853.3332133040462,1170.9905669973755,410.20894637252513
1533045069.208,1192.4326000581452,879.5896198672476,853.7432333489371,1187.6810817775547,653.4475523245441
1533045069.2120001,1157.9827502664987,851.2822728745814,852.9231932591553,1157.085602294844,737.9649151021864
1533045069.216,1168.5814516910552,797.9485794533866,855.384153733511,1118.1448654220437,482.35688492746556
1533045069.2189999,1245.4261071809283,829.9486274651015,855.384153733511,1140.395087514665,554.504823482406
1533045069.2229998,1210.9816842717319,905.0251461356571,855.384153733511,1132.0498301245752,793.6188808113602
1533045069.2270002,1168.5814516910552,875.076878758417,857.8459544128767,1134.835380202223,886.3811191886398
1533045069.231,1181.8338986335884,839.7949899775546,854.5641136437291,1143.1806375923125,777.129129612086
1533045069.235,1165.9331330555287,822.1540455871233,850.0513725348985,1126.4901228121334,861.6464923897283
1533045069.2389998,1213.6300029072584,838.5640896378717,857.4359343679857,1148.7403449047545,700.8608640805732
1533045069.2429998,1226.8770229673419,866.8714366305378,858.2559744577677,1143.1806375923125,509.15589686115555
1533045069.2470002,1179.180153115612,863.5895958613902,858.2559744577677,1123.7102691559123,527.705811548716
1533045069.2510002,1171.229770326582,890.2560224694826,864.8204962010731,1120.9247190782648,731.7802029908355
1533045069.255,1216.278321542785,859.8977350473516,860.7177751371335,1129.2699764683543,812.1730171454132
1533045069.2589998,1266.6289369124916,784.8203761717859,851.2822728745814,1126.4901228121334,647.2628402131932
1533045069.262,1218.9266401783118,852.1023129643633,857.0259143230949,1104.2399007195122,486.477211904038
1533045069.266,1200.382982847175,932.1024329936505,868.9232172650127,1115.3650117658228,672.001688658597
1533045069.27,1213.6300029072584,895.589643873105,861.5386554319253,1115.3650117658228,719.4107787681336
1533045069.274,1150.0323674774688,857.4359343679857,852.1023129643633,1084.769532283112,682.3067277465203
1533045069.2779999,1163.284814420002,853.3332133040462,852.5123330092542,1056.9539064566225,550.3802748593413
1533045069.282,1208.3279387537552,915.6923889429021,864.4104761561821,1093.1147896732018,700.8608640805732
1533045069.286,1181.8338986335884,888.2050820400177,867.6923169253298,1120.9247190782648,682.3067277465203
1533045069.29,1131.4832832638822,840.6150300673364,860.7177751371335,1095.8946433294227,480.2967214391794
1533045069.294,1081.1380947766256,844.307731086385,859.8977350473516,1081.9839822054646,740.0250785904726
1533045069.2979999,1107.637561779242,807.7949419658397,850.4613925797895,1023.5728768962641,721.4751639029122
1533045069.302,1147.384048841942,866.4614165856469,855.795013983412,1023.5728768962641,669.9415251703108
1533045069.305,1115.5879445682722,935.7951340126991,861.1277951820244,1045.8287954103118,824.542441368115
1533045069.309,1168.5814516910552,891.4869228091654,845.127771176167,1109.7996080319542,597.7935866153703
1533045069.313,1171.229770326582,858.6668347076687,850.4613925797895,1134.835380202223,548.3201113710551
1533045069.3170002,1081.1380947766256,857.4359343679857,866.4614165856469,1026.3584269739117,785.3740052117231
1533045069.321,1097.0388603546855,892.3078031039573,875.896918848199,1043.0432453326641,715.2904517915613
1533045069.325,1107.637561779242,896.4105241678969,880.4105001620395,1104.2399007195122,641.0823497483345
1533045069.329,1123.532900474852,869.7432573547945,872.6150780790513,1145.9604912485336,608.0986257032937
1533045069.333,1104.9838162612657,846.3586715158499,862.7687155665983,1134.835380202223,717.3506152798474
1533045069.3370001,1097.0388603546855,777.0257942938077,856.2050340283029,1095.8946433294227,620.4680499259955
1533045069.341,1173.8835158445586,824.615006061479,865.230516245964,1112.5794616881751,585.4241623926684
1533045069.3439999,1134.1370287818588,905.4360063855581,865.6405362908549,1093.1147896732018,655.5119374593227
1533045069.3479998,1155.334431630972,882.4614405915044,861.5386554319253,1104.2399007195122,552.4446599941199
1533045069.3520002,1171.229770326582,861.5386554319253,866.8714366305378,1120.9247190782648,437.00795830621513
1533045069.356,1115.5879445682722,828.3077070805276,859.4868747974506,1087.5493859393332,439.0681217945013
1533045069.36,1139.433666052912,863.9996159062812,861.9486754768163,1059.7337601128434,420.51820710694085
1533045069.3639998,1173.8835158445586,901.7433053665094,868.5123570151117,1081.9839822054646,587.4843258809545
1533045069.3679998,1131.4832832638822,877.5386794377828,863.1795758164992,1098.6744969856436,764.7597053893841
1533045069.3720002,1078.489776141099,842.2559504519103,858.6668347076687,1076.4242748930226,585.4241623926684
1533045069.3760002,1157.9827502664987,802.4613205622172,857.0259143230949,1095.8946433294227,465.8671337281913
1533045069.38,1218.9266401783118,854.1540935988381,864.4104761561821,1101.4543506418647,808.0484685223483
1533045069.3839998,1179.180153115612,881.2305402518215,866.8714366305378,1140.395087514665,1102.8249348534612
1533045069.387,1189.7788545401686,839.7949899775546,864.4104761561821,1165.4308596849337,694.6761519692221
1533045069.391,1139.433666052912,855.795013983412,866.8714366305378,1087.5493859393332,610.1587891915798
1533045069.395,1086.434732047679,828.7177271254186,859.4868747974506,1040.2633916764432,770.944417500735
1533045069.399,1171.229770326582,810.2559024401954,855.795013983412,1065.299163846712,760.6393784128117
1533045069.4029999,1150.0323674774688,901.7433053665094,863.5895958613902,1081.9839822054646,713.2260666567827
1533045069.407,1142.0819846884388,915.2815286930011,863.9996159062812,1073.6444212368017,641.0823497483345
1533045069.411,1123.532900474852,889.8460024245916,862.7687155665983,1065.299163846712,766.8240905241627
1533045069.415,1046.688244984979,841.4359103621283,857.0259143230949,1076.4242748930226,628.7129255256327
1533045069.419,1155.334431630972,856.2050340283029,862.3586955217073,1087.5493859393332,645.202676724907
1533045069.4229999,1218.9266401783118,922.2560704811974,862.3586955217073,1087.5493859393332,799.8035929227112
1533045069.427,1203.0313014827018,901.7433053665094,859.4868747974506,1145.9604912485336,773.0088026355136
1533045069.43,1200.382982847175,871.3841777393684,868.9232172650127,1173.7761170750232,884.3209557003536
1533045069.434,1118.236263203799,823.7949659716971,852.9231932591553,1065.299163846712,770.944417500735
1533045069.438,1155.334431630972,841.8459304070193,847.1795518106418,1101.4543506418647,544.1955627479903
1533045069.4420002,1168.5814516910552,919.7951100068417,859.0768547525596,1159.865455951065,525.6456480604298
1533045069.446,1094.385114836709,909.9487474943886,861.5386554319253,1118.1448654220437,540.075235771418
1533045069.45,1036.0895435604225,888.6151020849087,858.2559744577677,1054.1740528004016,606.0384622150075
1533045069.454,1028.1391607713927,868.1023369702208,858.2559744577677,1034.7036843640012,764.7597053893841
1533045069.458,1065.2373291985657,854.1540935988381,857.8459544128767,992.9773974135534,682.3067277465203
1533045069.4620001,1083.7864134121523,914.8715086481102,854.5641136437291,954.0366605407531,713.2260666567827
1533045069.466,1107.637561779242,937.025194147372,856.6150540731938,1037.4835380202223,929.6698823216041
1533045069.4689999,1081.1380947766256,898.4614645973618,852.9231932591553,1059.7337601128434,923.485170210253
1533045069.4729998,1033.4412249248958,864.8204962010731,847.9995919004238,1009.6679121937326,639.017964613556
1533045069.4770002,1097.0388603546855,799.9995198828514,841.0258903172374,954.0366605407531,461.7425851051265
1533045069.481,1147.384048841942,832.8204481893582,849.2304922401066,931.786438448132,707.045576191924
1533045069.485,1115.5879445682722,939.4869948267377,863.1795758164992,998.542801147422,843.0923560556755
1533045069.4889998,1118.236263203799,924.3078511156722,857.0259143230949,1084.769532283112,735.9047516139003
1533045069.4929998,1094.385114836709,882.4614405915044,855.795013983412,1081.9839822054646,725.5954908794846
1533045069.4970002,1126.1866459928287,866.8714366305378,862.3586955217073,1045.8287954103118,696.7363154575083
1533045069.5010002,1147.384048841942,896.8205442127879,860.3077550922425,1004.102508459864,822.4780562333365
1533045069.505,1157.9827502664987,900.9232652767275,856.2050340283029,1051.3885027227539,709.1057396802103
1533045069.5089998,1171.229770326582,889.0251221297997,859.8977350473516,1098.6744969856436,669.9415251703108
1533045069.512,1155.334431630972,858.2559744577677,859.0768547525596,1084.769532283112,824.542441368115
1533045069.516,1179.180153115612,830.7695077598934,862.3586955217073,1076.4242748930226,672.001688658597
1533045069.52,1184.4822172691152,882.8714606363952,861.9486754768163,1054.1740528004016,634.8976376369836
1533045069.524,1171.229770326582,884.5123810209691,856.6150540731938,1095.8946433294227,758.5792149245256
1533045069.5279999,1171.229770326582,865.6405362908549,855.384153733511,1107.0197543757333,680.2465642582341
1533045069.532,1134.1370287818588,895.589643873105,861.5386554319253,1070.858871159154,770.944417500735
1533045069.536,1152.6806861129955,828.7177271254186,853.7432333489371,1062.5136137690642,857.5219437666635
1533045069.54,1218.9266401783118,822.5640656320143,849.6405122849975,1065.299163846712,810.112853657127
1533045069.544,1203.0313014827018,921.8460504363064,866.8714366305378,1087.5493859393332,791.558717323074
1533045069.5479999,1216.278321542785,901.3332853216185,868.5123570151117,1123.7102691559123,601.9139135919427
1533045069.552,1195.080918693672,873.4359583738432,868.9232172650127,1115.3650117658228,451.4375460172032
1533045069.555,1144.7357302064154,845.5386314260679,863.1795758164992,1062.5136137690642,616.3435013029308
1533045069.559,1213.6300029072584,868.5123570151117,864.4104761561821,1098.6744969856436,754.4546663014607
1533045069.563,1197.7292373291987,925.5379112503451,867.2822968804388,1137.6152338584438,803.9281415457759
1533045069.5670002,1160.6310689020254,908.7178471547057,861.5386554319253,1112.5794616881751,896.6861582765631
1533045069.571,1171.229770326582,861.1277951820244,859.0768547525596,1101.4543506418647,694.6761519692221
1533045069.575,1179.180153115612,803.6922209019001,853.7432333489371,1079.2041285492435,437.00795830621513
1533045069.579,1256.024808605485,842.2559504519103,851.6922929194724,1065.299163846712,350.4304320402866
1533045069.583,1232.179087120845,932.1024329936505,859.0768547525596,1126.4901228121334,593.6690379923056
1533045069.5870001,1134.1370287818588,907.8969668599138,860.7177751371335,1123.7102691559123,698.7964789457945
1533045069.591,1150.0323674774688,882.0514205466134,848.8204721952156,1095.8946433294227,568.9344111933941
1533045069.5939999,1136.7853474173853,845.9486514709589,846.3586715158499,1098.6744969856436,562.7496990820432
1533045069.5979998,1136.7853474173853,816.4104041386098,856.6150540731938,1062.5136137690642,667.8771400355322
1533045069.6020002,1163.284814420002,889.4359823797006,865.230516245964,1048.6086490665327,841.0321925673893
1533045069.606,1139.433666052912,903.3842257510832,861.9486754768163,1076.4242748930226,554.504823482406
1533045069.61,1081.1380947766256,888.6151020849087,861.5386554319253,1054.1740528004016,573.0547381699665
1533045069.6139998,1044.0399263494526,854.5641136437291,852.1023129643633,1009.6679121937326,805.9883050340621
1533045069.6179998,1157.9827502664987,820.1022649526484,862.7687155665983,1068.079017502933,760.6393784128117
1533045069.6220002,1179.180153115612,870.5641376495865,867.6923169253298,1056.9539064566225,717.3506152798474
1533045069.6260002,1115.5879445682722,873.8459784187341,843.0768307467022,1045.8287954103118,498.84663612673984
1533045069.63,1107.637561779242,872.6150780790513,847.9995919004238,1084.769532283112,560.689535593757
1533045069.6339998,1065.2373291985657,881.2305402518215,858.6668347076687,1020.7930232400431,892.5658312999907
1533045069.637,1107.637561779242,787.2821768511517,847.9995919004238,1020.7930232400431,698.7964789457945
1533045069.641,1165.9331330555287,831.5895478496753,847.5895718555328,1043.0432453326641,579.2394502813174
1533045069.645,1171.229770326582,932.9233132884424,861.9486754768163,1051.3885027227539,865.7668193663008
1533045069.649,1147.384048841942,891.8969428540564,863.1795758164992,1073.6444212368017,704.9811910571456
1533045069.6529999,1107.637561779242,852.9231932591553,856.6150540731938,1076.4242748930226,624.5883769025679
1533045069.657,1139.433666052912,831.9995678945663,857.0259143230949,1062.5136137690642,544.1955627479903
1533045069.661,1165.9331330555287,888.2050820400177,864.4104761561821,1084.769532283112,781.2536782351507
1533045069.665,1147.384048841942,886.154141610553,860.7177751371335,1081.9839822054646,1119.3146860527354
1533045069.669,1155.334431630972,843.8977110414942,855.384153733511,1081.9839822054646,793.6188808113602
1533045069.6729999,1160.6310689020254,841.0258903172374,861.9486754768163,1087.5493859393332,300.95695679597134
1533045069.676,1142.0819846884388,827.8976870356367,862.3586955217073,1079.2041285492435,428.76308270657796
1533045069.68,1139.433666052912,861.1277951820244,862.3586955217073,1076.4242748930226,657.5721009476089
1533045069.684,1152.6806861129955,891.8969428540564,864.4104761561821,1059.7337601128434,649.3272253479718
1533045069.688,1128.8349646283555,881.2305402518215,859.4868747974506,1059.7337601128434,527.705811548716
1533045069.6920002,1089.0884775656557,884.5123810209691,861.1277951820244,1048.6086490665327,558.6251504589784
1533045069.696,1089.0884775656557,820.5122849975394,862.3586955217073,1020.7930232400431,834.8474804560383
1533045069.7,1120.8845818393256,811.0767827349873,858.2559744577677,979.0724327110219,669.9415251703108
1533045069.704,1115.5879445682722,912.4105481737544,866.8714366305378,1037.4835380202223,556.5649869706922
1533045069.708,1091.7367962011822,907.4869468150229,868.1023369702208,1073.6444212368017,849.2770681670264
1533045069.7120001,1102.335497625739,847.5895718555328,858.6668347076687,1079.2041285492435,754.4546663014607
1533045069.716,1110.2858804147688,783.9994958769939,854.1540935988381,1048.6086490665327,461.7425851051265
1533045069.7189999,1126.1866459928287,814.769483754036,861.9486754768163,1015.2333159276012,735.9047516139003
1533045069.7229998,1128.8349646283555,908.7178471547057,874.2559984636251,1068.079017502933,762.6995419010979
1533045069.7270002,1126.1866459928287,910.3587675392796,875.486898803308,1073.6444212368017,838.9720290791031
1533045069.731,1102.335497625739,881.2305402518215,870.1541176046956,1076.4242748930226,904.9352555226926
1533045069.735,1091.7367962011822,831.1795278047844,865.6405362908549,1062.5136137690642,884.3209557003536
1533045069.7389998,1120.8845818393256,825.02586631138,864.4104761561821,1023.5728768962641,878.1362435890026
1533045069.7429998,1142.0819846884388,898.8714846422527,868.5123570151117,1062.5136137690642,1080.150471542836
1533045069.7470002,1152.6806861129955,890.6668827193836,873.0250981239423,1098.6744969856436,1082.2106350311221
1533045069.7510002,1128.8349646283555,855.384153733511,871.3841777393684,1056.9539064566225,725.5954908794846
1533045069.755,1051.9903091384824,821.7431853372223,859.8977350473516,1018.0131695838222,756.514829789747
1533045069.7589998,1118.236263203799,809.0258423055226,856.2050340283029,1065.299163846712,785.3740052117231
1533045069.762,1203.0313014827018,861.5386554319253,864.8204962010731,1118.1448654220437,680.2465642582341
1533045069.766,1197.7292373291987,886.564161655444,870.5641376495865,1123.7102691559123,606.0384622150075
1533045069.77,1171.229770326582,876.7177991429909,868.5123570151117,1126.4901228121334,535.9506871483532
1533045069.774,1115.5879445682722,837.7432093430797,859.4868747974506,1095.8946433294227,474.11200932782845
1533045069.7779999,1139.433666052912,786.8713166012507,852.1023129643633,1023.5728768962641,690.5516033461574
1533045069.782,1192.4326000581452,860.7177751371335,857.4359343679857,1045.8287954103118,785.3740052117231
1533045069.786,1152.6806861129955,916.1024089877931,860.7177751371335,1068.079017502933,641.0823497483345
1533045069.79,1094.385114836709,879.1795998223566,857.8459544128767,1059.7337601128434,554.504823482406
1533045069.794,1081.1380947766256,834.871388618823,849.2304922401066,1070.858871159154,568.9344111933941
1533045069.7979999,1091.7367962011822,825.8459064011619,847.5895718555328,1031.9181342863537,696.7363154575083
1533045069.801,1173.8835158445586,880.8205202069305,857.8459544128767,1048.6086490665327,591.6088745040194
1533045069.805,1152.6806861129955,872.6150780790513,857.0259143230949,1081.9839822054646,509.15589686115555
1533045069.809,1046.688244984979,863.1795758164992,855.384153733511,1043.0432453326641,669.9415251703108
1533045069.813,1041.3916077139259,857.0259143230949,856.2050340283029,1018.0131695838222,573.0547381699665
1533045069.8170002,1073.1877119875958,799.5894998379605,852.1023129643633,1015.2333159276012,517.4007724607927
1533045069.821,1099.6871789902123,846.7686915607409,855.795013983412,990.1975437573325,558.6251504589784
1533045069.825,1094.385114836709,935.3842737627981,863.9996159062812,1009.6679121937326,643.1425132366207
1533045069.829,1075.8360306231225,911.5896678789625,861.1277951820244,1070.858871159154,719.4107787681336
1533045069.833,1051.9903091384824,870.1541176046956,854.5641136437291,1031.9181342863537,682.3067277465203
1533045069.8370001,1089.0884775656557,842.6668107018112,854.1540935988381,998.542801147422,643.1425132366207
1533045069.841,1115.5879445682722,865.230516245964,856.2050340283029,1029.1382806301326,472.05184583954224
1533045069.8439999,1099.6871789902123,901.7433053665094,855.795013983412,1048.6086490665327,597.7935866153703
1533045069.8479998,1094.385114836709,884.1023609760782,857.4359343679857,1070.858871159154,900.8107068996278
1533045069.8520002,1075.8360306231225,835.692268913615,859.0768547525596,1059.7337601128434,752.3945028131745
1533045069.856,1110.2858804147688,782.3585754924202,848.4104521503247,1023.5728768962641,886.3811191886398
1533045069.86,1184.4822172691152,818.8713646129655,850.0513725348985,1073.6444212368017,925.5453336985393
1533045069.8639998,1062.589010563039,907.8969668599138,873.0250981239423,1059.7337601128434,575.1191233047451
1533045069.8679998,977.7939722841361,894.7687635783132,868.9232172650127,906.75636269929,531.8303601717809
1533045069.8720002,1009.590076557806,866.4614165856469,854.1540935988381,887.2859942628899,636.9578011252698
1533045069.8760002,1012.2438220757825,818.0513245231837,852.5123330092542,931.786438448132,601.9139135919427
1533045069.88,1067.8856478340924,843.8977110414942,859.0768547525596,992.9773974135534,661.6924279241813
1533045069.8839998,1086.434732047679,884.1023609760782,865.230516245964,1040.2633916764432,533.890523660067
1533045069.887,1065.2373291985657,863.9996159062812,869.7432573547945,1040.2633916764432,459.6824216168404
1533045069.891,1049.3365636205058,871.3841777393684,868.9232172650127,1037.4835380202223,750.3301176783959
1533045069.895,1036.0895435604225,820.1022649526484,850.0513725348985,1043.0432453326641,694.6761519692221
1533045069.899,1104.9838162612657,800.8204001776434,853.3332133040462,1045.8287954103118,546.2599478827689
1533045069.9029999,1123.532900474852,872.6150780790513,873.0250981239423,1040.2633916764432,684.3711128812988
1533045069.907,1091.7367962011822,863.1795758164992,865.6405362908549,1045.8287954103118,542.1353992597042
1533045069.911,1057.2869464095359,846.7686915607409,857.4359343679857,1059.7337601128434,556.5649869706922
1533045069.915,1046.688244984979,828.3077070805276,860.3077550922425,1037.4835380202223,645.202676724907
1533045069.919,1110.2858804147688,822.9740856769051,857.0259143230949,1015.2333159276012,789.4985538347879
1533045069.9229999,1134.1370287818588,886.154141610553,861.1277951820244,1070.858871159154,888.441282676926
1533045069.926,1120.8845818393256,875.076878758417,860.3077550922425,1076.4242748930226,684.3711128812988
1533045069.93,1078.489776141099,857.0259143230949,862.7687155665983,1037.4835380202223,482.35688492746556
1533045069.934,1062.589010563039,825.02586631138,863.1795758164992,1026.3584269739117,597.7935866153703
1533045069.938,1094.385114836709,785.2303962166769,849.6405122849975,1001.322654803643,785.3740052117231
1533045069.9420002,1128.8349646283555,861.5386554319253,860.3077550922425,1029.1382806301326,847.2169046787402
1533045069.946,1126.1866459928287,867.6923169253298,863.5895958613902,1095.8946433294227,787.4383903465017
1533045069.95,1104.9838162612657,846.3586715158499,861.5386554319253,1073.6444212368017,525.6456480604298
1533045069.954,1067.8856478340924,865.230516245964,864.8204962010731,1073.6444212368017,624.5883769025679
1533045069.958,1081.1380947766256,793.0258182996652,849.6405122849975,1031.9181342863537,867.8312045010792
1533045069.9620001,1147.384048841942,837.3331892981888,855.795013983412,1029.1382806301326,814.2331806336992
1533045069.966,1112.9341990502955,900.9232652767275,869.3332373099037,1073.6444212368017,655.5119374593227
1533045069.9689999,1118.236263203799,883.2823208862962,867.6923169253298,1098.6744969856436,529.7659750370022
1533045069.9729998,1139.433666052912,866.8714366305378,860.7177751371335,1098.6744969856436,589.5487110157331
1533045069.9770002,1104.9838162612657,833.6413284841501,864.8204962010731,1054.1740528004016,727.6556543677707
1533045069.981,1160.6310689020254,863.9996159062812,863.9996159062812,1118.1448654220437,606.0384622150075
1533045069.985,1184.4822172691152,900.5124050268265,861.9486754768163,1184.9012281213338,737.9649151021864
1533045069.9889998,1144.7357302064154,873.0250981239423,862.7687155665983,1145.9604912485336,793.6188808113602
1533045069.9929998,1120.8845818393256,831.1795278047844,849.6405122849975,1112.5794616881751,636.9578011252698
1533045069.9970002,1168.5814516910552,781.5385354026382,845.127771176167,1140.395087514665,756.514829789747
1533045070.0010002,1173.8835158445586,821.7431853372223,864.8204962010731,1134.835380202223,696.7363154575083
1533045070.005,1144.7357302064154,925.5379112503451,873.8459784187341,1148.7403449047545,892.5658312999907
1533045070.0089998,1131.4832832638822,897.2305642576789,859.0768547525596,1123.7102691559123,968.8340968315035
1533045070.012,1078.489776141099,847.9995919004238,854.1540935988381,1093.1147896732018,581.2996137696036
1533045070.016,1091.7367962011822,814.358623504135,858.2559744577677,1079.2041285492435,412.2691098608113
1533045070.02,1226.8770229673419,829.9486274651015,860.3077550922425,1068.079017502933,455.55787299377556
1533045070.024,1245.4261071809283,882.8714606363952,859.0768547525596,1134.835380202223,737.9649151021864
1533045070.0279999,1160.6310689020254,876.7177991429909,856.6150540731938,1115.3650117658228,700.8608640805732
1533045070.032,1142.0819846884388,848.8204721952156,857.0259143230949,1054.1740528004016,420.51820710694085
1533045070.036,1128.8349646283555,813.948603459244,849.6405122849975,1026.3584269739117,511.21606034944176
1533045070.04,1184.4822172691152,814.358623504135,843.4868507915932,1084.769532283112,581.2996137696036
1533045070.044,1181.8338986335884,864.8204962010731,859.4868747974506,1134.835380202223,713.2260666567827
1533045070.0479999,1115.5879445682722,881.6405602967124,862.7687155665983,1090.329239595554,880.1964070772888
1533045070.051,1110.2858804147688,879.9996399121386,855.795013983412,1079.2041285492435,721.4751639029122
1533045070.055,1083.7864134121523,820.5122849975394,848.8204721952156,1045.8287954103118,795.6832659461388
1533045070.059,1104.9838162612657,792.2049380048732,847.1795518106418,1018.0131695838222,892.5658312999907
1533045070.063,1131.4832832638822,885.743281360652,865.230516245964,1051.3885027227539,740.0250785904726
1533045070.0670002,1123.532900474852,906.25604647534,862.7687155665983,1095.8946433294227,805.9883050340621
1533045070.071,1123.532900474852,873.4359583738432,857.8459544128767,1093.1147896732018,843.0923560556755
1533045070.075,1091.7367962011822,818.8713646129655,854.1540935988381,1070.858871159154,787.4383903465017
1533045070.079,1115.5879445682722,822.5640656320143,856.6150540731938,1104.2399007195122,890.5056678117045
1533045070.083,1181.8338986335884,890.2560224694826,863.5895958613902,1162.6510060287126,865.7668193663008
1533045070.0870001,1208.3279387537552,855.795013983412,862.3586955217073,1168.2107133411546,511.21606034944176
1533045070.091,1181.8338986335884,852.1023129643633,868.1023369702208,1134.835380202223,404.0242342611742
1533045070.0939999,1142.0819846884388,854.1540935988381,859.8977350473516,1109.7996080319542,657.5721009476089
1533045070.0979998,1160.6310689020254,792.2049380048732,852.5123330092542,1034.7036843640012,754.4546663014607
1533045070.1020002,1165.9331330555287,874.2559984636251,868.1023369702208,1043.0432453326641,838.9720290791031
1533045070.106,1152.6806861129955,933.7433533782242,871.7950379892694,1137.6152338584438,950.2841821439431
1533045070.11,1181.8338986335884,889.0251221297997,862.7687155665983,1157.085602294844,950.2841821439431
1533045070.1139998,1157.9827502664987,831.1795278047844,858.2559744577677,1148.7403449047545,643.1425132366207
1533045070.1179998,1144.7357302064154,823.3841057217961,860.7177751371335,1087.5493859393332,552.4446599941199
1533045070.1220002,1197.7292373291987,886.564161655444,863.9996159062812,1081.9839822054646,639.017964613556
1533045070.1260002,1189.7788545401686,903.3842257510832,869.3332373099037,1107.0197543757333,665.816976547246
1533045070.13,1134.1370287818588,881.2305402518215,861.5386554319253,1062.5136137690642,667.8771400355322
1533045070.133,1081.1380947766256,817.2304442283918,847.9995919004238,1031.9181342863537,521.5210994373651
1533045070.137,1089.0884775656557,799.9995198828514,854.97413368862,995.7629474912011,544.1955627479903
1533045070.141,1150.0323674774688,876.7177991429909,863.5895958613902,1004.102508459864,577.1792867930312
1533045070.145,1157.9827502664987,907.4869468150229,867.2822968804388,1070.858871159154,655.5119374593227
1533045070.149,1165.9331330555287,889.0251221297997,868.9232172650127,1112.5794616881751,694.6761519692221
1533045070.1529999,1150.0323674774688,860.3077550922425,856.2050340283029,1073.6444212368017,758.5792149245256
1533045070.157,1179.180153115612,820.9231452474404,851.6922929194724,1048.6086490665327,874.0116949659379
1533045070.161,1242.7777885454018,870.5641376495865,860.3077550922425,1087.5493859393332,954.4045091205154
1533045070.165,1258.6785541234615,909.1278671995967,864.4104761561821,1112.5794616881751,995.6331087651936
1533045070.169,1229.5307684853183,870.5641376495865,853.7432333489371,1070.858871159154,690.5516033461574
1533045070.1729999,1163.284814420002,854.97413368862,853.7432333489371,1062.5136137690642,579.2394502813174
1533045070.176,1184.4822172691152,799.9995198828514,849.6405122849975,1070.858871159154,795.6832659461388
1533045070.18,1224.2287043318152,804.513101196692,845.127771176167,1076.4242748930226,822.4780562333365
1533045070.184,1200.382982847175,887.3842017452258,861.1277951820244,1126.4901228121334,667.8771400355322
1533045070.188,1136.7853474173853,896.4105241678969,861.5386554319253,1098.6744969856436,527.705811548716
1533045070.1920002,1126.1866459928287,874.6668587135262,857.8459544128767,1087.5493859393332,606.0384622150075
1533045070.196,1112.9341990502955,799.5894998379605,849.2304922401066,1068.079017502933,756.514829789747
1533045070.2,1163.284814420002,788.1022169409335,844.717751131276,1084.769532283112,789.4985538347879
1533045070.204,1229.5307684853183,874.2559984636251,867.2822968804388,1143.1806375923125,709.1057396802103
1533045070.208,1192.4326000581452,850.8714126246804,866.8714366305378,1154.305748638623,620.4680499259955
1533045070.2120001,1147.384048841942,810.2559024401954,850.4613925797895,1132.0498301245752,688.4914398578712
1533045070.216,1139.433666052912,745.0257462820929,846.3586715158499,1065.299163846712,562.7496990820432
1533045070.2189999,1197.7292373291987,768.4103321210375,847.9995919004238,1043.0432453326641,713.2260666567827
1533045070.2229998,1210.9816842717319,832.4104281444672,852.1023129643633,1073.6444212368017,950.2841821439431
1533045070.2270002,1184.4822172691152,773.333093274759,848.8204721952156,1090.329239595554,610.1587891915798
1533045070.231,1189.7788545401686,759.3848499033764,860.3077550922425,1115.3650117658228,674.0618521468831
1533045070.235,1144.7357302064154,737.6411844490056,855.795013983412,1090.329239595554,927.6097188333179
1533045070.2389998,1110.2858804147688,708.5129571615474,834.0513485290411,1015.2333159276012,841.0321925673893
1533045070.2429998,1192.4326000581452,806.9740616710477,853.7432333489371,1056.9539064566225,805.9883050340621
1533045070.2470002,1179.180153115612,815.1795037989269,859.8977350473516,1073.6444212368017,795.6832659461388
1533045070.2510002,1104.9838162612657,789.7431373255074,845.5386314260679,1081.9839822054646,764.7597053893841
1533045070.255,1081.1380947766256,771.6921728901852,846.3586715158499,1104.2399007195122,707.045576191924
1533045070.258,1128.8349646283555,777.4358143386986,853.7432333489371,1062.5136137690642,768.8842540124489
1533045070.262,1163.284814420002,859.4868747974506,863.1795758164992,1059.7337601128434,968.8340968315035
1533045070.266,1160.6310689020254,851.2822728745814,866.051396540756,1115.3650117658228,634.8976376369836
1533045070.27,1152.6806861129955,839.7949899775546,863.1795758164992,1140.395087514665,484.41704841575176
1533045070.274,1136.7853474173853,799.1794797930695,876.7177991429909,1104.2399007195122,849.2770681670264
1533045070.2779999,1150.0323674774688,778.2566946334906,872.2050580341603,1095.8946433294227,630.7730890139188
1533045070.282,1152.6806861129955,870.9741576944774,854.97413368862,1084.769532283112,552.4446599941199
1533045070.286,1155.334431630972,898.0514445524708,860.7177751371335,1090.329239595554,750.3301176783959
1533045070.29,1197.7292373291987,876.3077790980999,872.2050580341603,1204.371596557734,764.7597053893841
1533045070.294,1123.532900474852,857.0259143230949,868.9232172650127,1165.4308596849337,735.9047516139003
1533045070.2979999,1044.0399263494526,784.410356126895,853.7432333489371,976.292579054801,558.6251504589784
1533045070.301,1097.0388603546855,846.3586715158499,863.5895958613902,992.9773974135534,909.055582499265
1533045070.305,1139.433666052912,932.1024329936505,872.6150780790513,1054.1740528004016,1113.1299739413844
1533045070.309,1155.334431630972,923.8969908657713,875.486898803308,1090.329239595554,886.3811191886398
1533045070.313,1078.489776141099,893.1278431937393,863.9996159062812,1051.3885027227539,655.5119374593227
1533045070.3170002,1028.1391607713927,858.6668347076687,851.2822728745814,1001.322654803643,583.3639989043822
1533045070.321,1078.489776141099,896.4105241678969,859.4868747974506,995.7629474912011,686.431276369585
1533045070.325,1131.4832832638822,949.3333573391908,864.8204962010731,1031.9181342863537,783.3138417234369
1533045070.329,1081.1380947766256,962.8715806656825,862.7687155665983,1020.7930232400431,482.35688492746556
1533045070.333,1028.1391607713927,956.717919172278,861.9486754768163,967.9473216647114,261.7927422860718
1533045070.3370001,1022.8425235003392,868.9232172650127,856.2050340283029,973.5070289771533,272.09778137399513
1533045070.341,1059.9406919275123,881.2305402518215,856.6150540731938,973.5070289771533,123.68157728754187
1533045070.3439999,1089.0884775656557,1007.178951664206,878.3587195275647,1012.4477658499535,286.52736908498326
1533045070.3479998,1094.385114836709,998.9743497413369,873.0250981239423,1031.9181342863537,439.0681217945013
1533045070.3520002,1131.4832832638822,950.9742777237645,852.1023129643633,1048.6086490665327,272.09778137399513
1533045070.356,1081.1380947766256,919.3842497569407,852.9231932591553,1006.8880585375116,618.403664791217
1533045070.36,1065.2373291985657,932.1024329936505,852.1023129643633,987.4176901011115,783.3138417234369
1533045070.3639998,1126.1866459928287,985.4361264148453,852.5123330092542,1054.1740528004016,680.2465642582341
1533045070.3679998,1144.7357302064154,979.6924849663318,856.2050340283029,1095.8946433294227,731.7802029908355
1533045070.3720002,1115.5879445682722,981.7434253957965,859.0768547525596,1059.7337601128434,742.0852420787588
1533045070.3760002,1086.434732047679,959.1797198516438,852.5123330092542,998.542801147422,836.9076439443245
1533045070.38,1118.236263203799,966.5642816847311,855.795013983412,995.7629474912011,863.7066558780145
1533045070.383,1179.180153115612,1050.6662825729477,862.3586955217073,1023.5728768962641,944.0994700325921
1533045070.387,1134.1370287818588,1042.0508204001776,855.795013983412,1051.3885027227539,845.1525195439617
1533045070.391,1104.9838162612657,1032.6153181376255,861.1277951820244,1070.858871159154,628.7129255256327
1533045070.395,1139.433666052912,972.7179431781354,854.97413368862,1054.1740528004016,678.1864007699479
1533045070.399,1126.1866459928287,975.9997839472832,848.4104521503247,1026.3584269739117,832.7873169677522
1533045070.4029999,1142.0819846884388,1067.0771668287061,857.8459544128767,1045.8287954103118,841.0321925673893
1533045070.407,1176.5318344800853,1069.948987552963,865.6405362908549,1107.0197543757333,882.256570565575
1533045070.411,1144.7357302064154,1039.5898599258219,861.9486754768163,1137.6152338584438,707.045576191924
1533045070.415,1097.0388603546855,971.0770227935616,850.4613925797895,1134.835380202223,614.2833378146446
1533045070.419,1126.1866459928287,914.8715086481102,849.6405122849975,1084.769532283112,917.3004580989021
1533045070.4229999,1173.8835158445586,1002.2561905104845,857.4359343679857,1054.1740528004016,939.9749214095274
1533045070.426,1134.1370287818588,1086.7690516486023,865.230516245964,1081.9839822054646,752.3945028131745
1533045070.43,1136.7853474173853,1053.5381032972045,866.051396540756,1109.7996080319542,647.2628402131932
1533045070.434,1134.1370287818588,995.6925089721892,856.2050340283029,1087.5493859393332,775.0689661237998
1533045070.438,1131.4832832638822,950.1533974289727,855.384153733511,1076.4242748930226,801.8679780574897
1533045070.4420002,1192.4326000581452,994.8716286773973,864.8204962010731,1120.9247190782648,632.833252502205
1533045070.446,1210.9816842717319,1009.6407523435719,866.051396540756,1123.7102691559123,754.4546663014607
1533045070.45,1163.284814420002,975.5897639023922,863.5895958613902,1101.4543506418647,744.1496272135374
1533045070.454,1144.7357302064154,940.7178951664206,866.8714366305378,1090.329239595554,538.0150722831318
1533045070.458,1165.9331330555287,919.3842497569407,861.9486754768163,1107.0197543757333,744.1496272135374
1533045070.4620001,1173.8835158445586,931.2815526988585,857.8459544128767,1126.4901228121334,684.3711128812988
1533045070.466,1184.4822172691152,956.307899127387,858.6668347076687,1115.3650117658228,636.9578011252698
1533045070.4689999,1120.8845818393256,970.2561424987697,863.9996159062812,1051.3885027227539,913.1801311223297
1533045070.4729998,1110.2858804147688,910.3587675392796,859.8977350473516,1054.1740528004016,742.0852420787588
1533045070.4770002,1107.637561779242,872.2050580341603,856.6150540731938,1070.858871159154,667.8771400355322
1533045070.481,1091.7367962011822,932.5124530385414,864.8204962010731,1065.299163846712,688.4914398578712
1533045070.485,1126.1866459928287,957.9488195119609,867.2822968804388,1070.858871159154,575.1191233047451
1533045070.4889998,1160.6310689020254,945.6406563201422,867.6923169253298,1095.8946433294227,581.2996137696036
1533045070.4929998,1152.6806861129955,929.2306122693938,867.6923169253298,1093.1147896732018,595.7292014805918
1533045070.4970002,1118.236263203799,882.8714606363952,861.5386554319253,1023.5728768962641,768.8842540124489
1533045070.5010002,1150.0323674774688,915.2815286930011,864.8204962010731,1034.7036843640012,888.441282676926
1533045070.505,1165.9331330555287,948.1024569995079,867.2822968804388,1054.1740528004016,750.3301176783959
1533045070.508,1160.6310689020254,905.0251461356571,854.97413368862,1037.4835380202223,626.6527620373465
1533045070.512,1134.1370287818588,892.3078031039573,852.9231932591553,1015.2333159276012,688.4914398578712
1533045070.516,1094.385114836709,836.5123090033968,847.1795518106418,998.542801147422,626.6527620373465
1533045070.52,1118.236263203799,862.7687155665983,851.2822728745814,1006.8880585375116,616.3435013029308
1533045070.524,1147.384048841942,939.0769747818467,866.051396540756,1040.2633916764432,634.8976376369836
1533045070.5279999,1126.1866459928287,888.2050820400177,860.3077550922425,1040.2633916764432,424.6385340835132
1533045070.532,1120.8845818393256,886.564161655444,858.2559744577677,1054.1740528004016,521.5210994373651
1533045070.536,1112.9341990502955,841.8459304070193,854.97413368862,1065.299163846712,556.5649869706922
1533045070.54,1107.637561779242,777.8458343835896,852.1023129643633,995.7629474912011,593.6690379923056
1533045070.544,1171.229770326582,899.6923649370447,871.3841777393684,1040.2633916764432,606.0384622150075
1533045070.5479999,1163.284814420002,937.8460744421639,875.486898803308,1126.4901228121334,276.22232999705994
1533045070.551,1115.5879445682722,905.0251461356571,864.4104761561821,1098.6744969856436,360.7354711282099
1533045070.555,1091.7367962011822,836.1022889585058,859.4868747974506,1048.6086490665327,568.9344111933941
1533045070.559,1110.2858804147688,818.4613445680747,857.0259143230949,1045.8287954103118,874.0116949659379
1533045070.563,1142.0819846884388,918.9742297120497,868.9232172650127,1045.8287954103118,707.045576191924
1533045070.5670002,1134.1370287818588,941.9487955061035,877.5386794377828,1040.2633916764432,560.689535593757
1533045070.571,1094.385114836709,928.8205922245028,876.3077790980999,1037.4835380202223,704.9811910571456
1533045070.575,1097.0388603546855,870.1541176046956,871.3841777393684,1068.079017502933,659.6322644358951
1533045070.579,1075.8360306231225,849.2304922401066,870.9741576944774,1051.3885027227539,628.7129255256327
1533045070.583,1107.637561779242,923.4869708208803,870.5641376495865,1023.5728768962641,655.5119374593227
1533045070.5870001,1139.433666052912,921.0251701415145,868.1023369702208,1051.3885027227539,665.816976547246
1533045070.59,1078.489776141099,915.2815286930011,870.9741576944774,1031.9181342863537,977.0789724311406
1533045070.5939999,1081.1380947766256,893.5387034436402,867.6923169253298,1020.7930232400431,975.0188089428544
1533045070.5979998,1104.9838162612657,843.8977110414942,857.0259143230949,1020.7930232400431,583.3639989043822
1533045070.6020002,1126.1866459928287,872.6150780790513,861.5386554319253,1004.102508459864,498.84663612673984
1533045070.606,1123.532900474852,882.8714606363952,870.9741576944774,1020.7930232400431,816.2975657684779
1533045070.61,1102.335497625739,835.692268913615,870.1541176046956,1040.2633916764432,795.6832659461388
1533045070.6139998,1065.2373291985657,757.7430893137926,870.9741576944774,1034.7036843640012,678.1864007699479
1533045070.6179998,1059.9406919275123,690.8720127711161,866.8714366305378,990.1975437573325,665.816976547246
1533045070.6220002,1128.8349646283555,751.1794077754972,868.5123570151117,990.1975437573325,704.9811910571456
1533045070.6260002,1104.9838162612657,809.8458823953044,880.4105001620395,1048.6086490665327,773.0088026355136
1533045070.63,1049.3365636205058,806.5640416261568,868.1023369702208,1018.0131695838222,733.8403664791217
1533045070.633,1054.6386277740091,802.0513005173262,857.4359343679857,995.7629474912011,628.7129255256327
1533045070.637,1009.590076557806,737.2303241991045,856.2050340283029,965.1674680084903,430.82324619486417
1533045070.641,1091.7367962011822,768.4103321210375,860.3077550922425,1006.8880585375116,515.3363873260141
1533045070.645,1189.7788545401686,866.051396540756,869.7432573547945,1123.7102691559123,735.9047516139003
1533045070.649,1099.6871789902123,848.8204721952156,866.8714366305378,1084.769532283112,655.5119374593227
1533045070.6529999,980.4422909196628,850.8714126246804,866.4614165856469,998.542801147422,665.816976547246
1533045070.657,977.7939722841361,785.6412564665778,861.1277951820244,906.75636269929,639.017964613556
1533045070.661,1073.1877119875958,782.3585754924202,857.8459544128767,931.786438448132,488.5415970388165
1533045070.665,1083.7864134121523,903.3842257510832,877.1278191878819,1034.7036843640012,570.9945746816803
1533045070.669,1073.1877119875958,904.6151260907661,874.6668587135262,1056.9539064566225,931.7300458098902
1533045070.6729999,1091.7367962011822,864.4104761561821,857.8459544128767,1101.4543506418647,789.4985538347879
1533045070.676,1062.589010563039,825.8459064011619,857.0259143230949,1026.3584269739117,725.5954908794846
1533045070.68,1104.9838162612657,838.1540695929807,861.1277951820244,1023.5728768962641,729.7200395025493
1533045070.684,1187.1305359046419,876.7177991429909,861.9486754768163,1107.0197543757333,657.5721009476089
1533045070.688,1152.6806861129955,868.9232172650127,865.6405362908549,1107.0197543757333,727.6556543677707
1533045070.6920002,1131.4832832638822,849.2304922401066,859.8977350473516,1104.2399007195122,515.3363873260141
1533045070.696,1176.5318344800853,775.3848739092339,852.1023129643633,1101.4543506418647,564.8098625703294
1533045070.7,1181.8338986335884,775.3848739092339,853.7432333489371,1054.1740528004016,737.9649151021864
1533045070.704,1179.180153115612,896.8205442127879,865.230516245964,1079.2041285492435,750.3301176783959
1533045070.708,1171.229770326582,911.9996879238535,864.8204962010731,1120.9247190782648,785.3740052117231
1533045070.7120001,1139.433666052912,889.0251221297997,862.7687155665983,1095.8946433294227,888.441282676926
1533045070.715,1102.335497625739,840.6150300673364,856.2050340283029,1054.1740528004016,1024.4922841871696
1533045070.7189999,1131.4832832638822,826.2559264460529,855.384153733511,1048.6086490665327,674.0618521468831
1533045070.7229998,1171.229770326582,886.564161655444,866.4614165856469,1073.6444212368017,577.1792867930312
1533045070.7270002,1160.6310689020254,893.5387034436402,868.5123570151117,1076.4242748930226,789.4985538347879
1533045070.731,1126.1866459928287,876.3077790980999,868.5123570151117,1056.9539064566225,585.4241623926684
1533045070.735,1112.9341990502955,844.307731086385,862.7687155665983,1040.2633916764432,704.9811910571456
1533045070.7389998,1120.8845818393256,838.9741096827626,855.384153733511,1059.7337601128434,909.055582499265
1533045070.7429998,1197.7292373291987,873.4359583738432,864.4104761561821,1093.1147896732018,789.4985538347879
1533045070.7470002,1168.5814516910552,886.564161655444,862.7687155665983,1098.6744969856436,923.485170210253
1533045070.7510002,1102.335497625739,914.0514685583282,858.6668347076687,1098.6744969856436,1022.4321206988835
1533045070.755,1144.7357302064154,879.5896198672476,855.795013983412,1087.5493859393332,906.9954190109788
1533045070.758,1131.4832832638822,787.6921968960427,845.5386314260679,1040.2633916764432,698.7964789457945
1533045070.762,1168.5814516910552,869.3332373099037,861.9486754768163,1070.858871159154,696.7363154575083
1533045070.766,1176.5318344800853,939.8970148716287,869.7432573547945,1115.3650117658228,661.6924279241813
1533045070.77,1118.236263203799,916.5124290326839,859.8977350473516,1073.6444212368017,715.2904517915613
1533045070.774,1144.7357302064154,883.6923409311872,860.3077550922425,1123.7102691559123,894.6259947882769
1533045070.7779999,1131.4832832638822,831.1795278047844,855.795013983412,1101.4543506418647,554.504823482406
1533045070.782,1147.384048841942,881.6405602967124,861.9486754768163,1054.1740528004016,612.2231743263584
1533045070.786,1203.0313014827018,905.846026430449,862.7687155665983,1098.6744969856436,836.9076439443245
1533045070.79,1197.7292373291987,865.6405362908549,855.795013983412,1084.769532283112,694.6761519692221
1533045070.794,1139.433666052912,854.1540935988381,857.4359343679857,1026.3584269739117,643.1425132366207
1533045070.7979999,1107.637561779242,808.6149820556216,845.127771176167,1012.4477658499535,861.6464923897283
1533045070.801,1139.433666052912,845.9486514709589,850.0513725348985,1015.2333159276012,975.0188089428544
1533045070.805,1187.1305359046419,927.5896918848199,866.4614165856469,1068.079017502933,676.1220156351693
1533045070.809,1189.7788545401686,900.9232652767275,863.9996159062812,1098.6744969856436,614.2833378146446
1533045070.813,1120.8845818393256,864.4104761561821,852.5123330092542,1048.6086490665327,700.8608640805732
1533045070.8170002,1112.9341990502955,838.5640896378717,845.127771176167,1045.8287954103118,672.001688658597
1533045070.821,1139.433666052912,860.7177751371335,852.9231932591553,1048.6086490665327,639.017964613556
1533045070.825,1173.8835158445586,907.0769267701319,863.9996159062812,1076.4242748930226,886.3811191886398
1533045070.829,1155.334431630972,898.0514445524708,861.5386554319253,1065.299163846712,954.4045091205154
1533045070.833,1107.637561779242,877.9486994826738,858.2559744577677,1068.079017502933,906.9954190109788
1533045070.8370001,1099.6871789902123,774.9740136593329,851.6922929194724,1029.1382806301326,657.5721009476089
1533045070.84,1104.9838162612657,785.6412564665778,851.6922929194724,981.8522863672429,387.5344830618999
1533045070.8439999,1089.0884775656557,916.1024089877931,864.4104761561821,1020.7930232400431,630.7730890139188
1533045070.8479998,1086.434732047679,901.7433053665094,868.1023369702208,1045.8287954103118,684.3711128812988
1533045070.8520002,1054.6386277740091,874.6668587135262,863.5895958613902,1048.6086490665327,610.1587891915798
1533045070.856,1044.0399263494526,825.02586631138,853.7432333489371,1043.0432453326641,447.31299739413845
1533045070.86,1086.434732047679,830.7695077598934,853.7432333489371,1012.4477658499535,317.4467079952456
1533045070.8639998,1134.1370287818588,909.5387274494976,862.3586955217073,1037.4835380202223,692.615988480936
1533045070.8679998,1110.2858804147688,893.5387034436402,866.051396540756,1073.6444212368017,869.8913679893654
1533045070.8720002,1083.7864134121523,854.5641136437291,863.1795758164992,1065.299163846712,663.7568130589598
1533045070.8760002,1078.489776141099,842.6668107018112,856.6150540731938,1068.079017502933,618.403664791217
1533045070.88,1089.0884775656557,839.7949899775546,858.2559744577677,1040.2633916764432,570.9945746816803
1533045070.883,1115.5879445682722,870.1541176046956,865.6405362908549,1043.0432453326641,639.017964613556
1533045070.887,1081.1380947766256,876.7177991429909,862.7687155665983,1037.4835380202223,795.6832659461388
1533045070.891,1097.0388603546855,893.5387034436402,866.8714366305378,1040.2633916764432,733.8403664791217
1533045070.895,1110.2858804147688,840.6150300673364,857.8459544128767,1045.8287954103118,375.16505883919797
1533045070.899,1089.0884775656557,779.8976150180644,849.6405122849975,998.542801147422,251.48348155165613
1533045070.9029999,1123.532900474852,898.4614645973618,868.1023369702208,1040.2633916764432,556.5649869706922
1533045070.907,1168.5814516910552,949.3333573391908,875.486898803308,1104.2399007195122,775.0689661237998
1533045070.911,1165.9331330555287,912.4105481737544,867.2822968804388,1107.0197543757333,606.0384622150075
1533045070.915,1104.9838162612657,879.1795998223566,859.0768547525596,1065.299163846712,733.8403664791217
1533045070.919,1091.7367962011822,854.97413368862,862.3586955217073,1015.2333159276012,869.8913679893654
1533045070.9229999,1165.9331330555287,889.4359823797006,873.8459784187341,1079.2041285492435,692.615988480936
1533045070.926,1200.382982847175,894.7687635783132,870.9741576944774,1143.1806375923125,690.5516033461574
1533045070.93,1160.6310689020254,873.0250981239423,871.7950379892694,1109.7996080319542,591.6088745040194
1533045070.934,1118.236263203799,854.1540935988381,863.1795758164992,1040.2633916764432,540.075235771418
1533045070.938,1104.9838162612657,799.9995198828514,856.2050340283029,1009.6679121937326,391.65903168496465
1533045070.9420002,1126.1866459928287,872.2050580341603,874.6668587135262,1045.8287954103118,457.62225812855417
1533045070.946,1097.0388603546855,956.307899127387,877.1278191878819,1040.2633916764432,768.8842540124489
1533045070.95,1054.6386277740091,921.8460504363064,869.3332373099037,1040.2633916764432,760.6393784128117
1533045070.954,1020.1887779823626,890.2560224694826,870.5641376495865,1054.1740528004016,603.9782987267213
1533045070.958,996.3430564977226,863.9996159062812,861.5386554319253,976.292579054801,834.8474804560383
1533045070.9620001,1020.1887779823626,887.3842017452258,857.4359343679857,934.566292104353,999.7576573882583
1533045070.965,1004.2934392867526,905.846026430449,863.9996159062812,959.6020642746217,692.615988480936
1533045070.9689999,996.3430564977226,901.7433053665094,866.8714366305378,967.9473216647114,610.1587891915798
1533045070.9729998,1041.3916077139259,880.4105001620395,861.1277951820244,967.9473216647114,624.5883769025679
1533045070.9770002,996.3430564977226,833.2304682342492,849.6405122849975,929.0065847919111,667.8771400355322
1533045070.981,988.3926737086927,843.8977110414942,850.8714126246804,873.3753331389316,832.7873169677522
1533045070.985,1057.2869464095359,896.8205442127879,860.7177751371335,937.3518421820006,803.9281415457759
1533045070.9889998,1033.4412249248958,915.2815286930011,862.7687155665983,951.2568068845321,657.5721009476089
1533045070.9929998,1006.9417579222793,912.4105481737544,860.7177751371335,945.6970995720902,634.8976376369836
1533045070.9970002,1028.1391607713927,825.4358863562709,847.9995919004238,923.4411810580425,620.4680499259955
1533045071.0010002,1086.434732047679,819.2822248628665,848.8204721952156,920.6613274018215,542.1353992597042
1533045071.005,1192.4326000581452,928.4097319746018,866.8714366305378,1109.7996080319542,694.6761519692221
1533045071.008,1203.0313014827018,930.8715326539676,864.4104761561821,1112.5794616881751,909.055582499265
1533045071.012,1033.4412249248958,899.6923649370447,857.8459544128767,934.566292104353,921.4250067219668
1533045071.016,964.5469522240527,851.2822728745814,859.0768547525596,884.5004441852421,719.4107787681336
1533045071.02,1044.0399263494526,861.5386554319253,863.9996159062812,929.0065847919111,733.8403664791217
1533045071.024,1067.8856478340924,889.8460024245916,858.2559744577677,984.6378364448905,754.4546663014607
1533045071.0279999,1014.8921407113093,881.6405602967124,854.1540935988381,912.3160700117319,552.4446599941199
1533045071.032,956.5965694350227,918.1533494172578,865.6405362908549,862.2502220926211,674.0618521468831
1533045071.036,980.4422909196628,859.0768547525596,861.5386554319253,920.6613274018215,791.558717323074
1533045071.04,1028.1391607713927,814.769483754036,859.8977350473516,937.3518421820006,702.9210275688594
1533045071.044,1073.1877119875958,929.6406323142846,872.6150780790513,926.2267311356901,805.9883050340621
1533045071.0470002,1094.385114836709,948.1024569995079,875.896918848199,979.0724327110219,863.7066558780145
1533045071.051,1110.2858804147688,904.6151260907661,873.4359583738432,1020.7930232400431,593.6690379923056
1533045071.055,1086.434732047679,854.5641136437291,864.8204962010731,976.292579054801,474.11200932782845
1533045071.059,1073.1877119875958,841.4359103621283,860.7177751371335,926.2267311356901,459.6824216168404
1533045071.063,1120.8845818393256,911.1796478340715,870.9741576944774,931.786438448132,680.2465642582341
1533045071.0670002,1118.236263203799,928.8205922245028,865.230516245964,951.2568068845321,1088.395347142473
1533045071.071,1128.8349646283555,884.1023609760782,861.9486754768163,1006.8880585375116,874.0116949659379
1533045071.075,1131.4832832638822,853.3332133040462,866.8714366305378,1018.0131695838222,878.1362435890026
1533045071.079,1102.335497625739,814.358623504135,851.6922929194724,984.6378364448905,1001.8178208765445
1533045071.083,1123.532900474852,870.9741576944774,855.795013983412,987.4176901011115,768.8842540124489
1533045071.0870001,1131.4832832638822,927.5896918848199,864.8204962010731,1015.2333159276012,649.3272253479718
1533045071.09,1091.7367962011822,921.0251701415145,861.9486754768163,1015.2333159276012,888.441282676926
1533045071.0939999,1078.489776141099,869.3332373099037,850.0513725348985,1006.8880585375116,1030.6769962985206
1533045071.0979998,1054.6386277740091,832.8204481893582,847.9995919004238,984.6378364448905,801.8679780574897
1533045071.1020002,1120.8845818393256,884.9232412708701,860.7177751371335,1001.322654803643,758.5792149245256
1533045071.106,1168.5814516910552,905.846026430449,863.1795758164992,1034.7036843640012,773.0088026355136
1533045071.11,1102.335497625739,895.1796238282141,858.2559744577677,1009.6679121937326,760.6393784128117
1533045071.1139998,1131.4832832638822,871.7950379892694,854.1540935988381,1031.9181342863537,766.8240905241627
1533045071.1179998,1136.7853474173853,815.9995438887089,853.3332133040462,1045.8287954103118,696.7363154575083
1533045071.1220002,1184.4822172691152,838.9741096827626,859.8977350473516,1054.1740528004016,688.4914398578712
1533045071.1260002,1208.3279387537552,902.9742057061923,864.4104761561821,1079.2041285492435,608.0986257032937
1533045071.13,1150.0323674774688,904.2051060458751,863.9996159062812,1073.6444212368017,663.7568130589598
1533045071.133,1144.7357302064154,876.7177991429909,859.8977350473516,1068.079017502933,733.8403664791217
1533045071.137,1147.384048841942,835.282248868724,855.384153733511,1048.6086490665327,624.5883769025679
1533045071.141,1163.284814420002,858.6668347076687,857.4359343679857,1045.8287954103118,694.6761519692221
1533045071.145,1216.278321542785,895.589643873105,863.5895958613902,1076.4242748930226,603.9782987267213
1533045071.149,1205.6796201182285,889.0251221297997,870.9741576944774,1087.5493859393332,740.0250785904726
1533045071.1529999,1134.1370287818588,850.0513725348985,861.9486754768163,1048.6086490665327,641.0823497483345
1533045071.157,1112.9341990502955,831.1795278047844,855.795013983412,1034.7036843640012,558.6251504589784
1533045071.161,1157.9827502664987,859.8977350473516,862.7687155665983,1068.079017502933,698.7964789457945
1533045071.165,1218.9266401783118,870.5641376495865,861.5386554319253,1120.9247190782648,612.2231743263584
1533045071.169,1176.5318344800853,868.1023369702208,859.0768547525596,1101.4543506418647,715.2904517915613
1533045071.1720002,1136.7853474173853,880.8205202069305,858.6668347076687,1068.079017502933,770.944417500735
1533045071.176,1152.6806861129955,824.204986016588,852.1023129643633,1054.1740528004016,737.9649151021864
1533045071.18,1155.334431630972,776.6149340439067,845.127771176167,987.4176901011115,620.4680499259955
1533045071.184,1187.1305359046419,889.8460024245916,856.6150540731938,1009.6679121937326,684.3711128812988
1533045071.188,1165.9331330555287,941.9487955061035,865.230516245964,1098.6744969856436,814.2331806336992
1533045071.1920002,1120.8845818393256,904.6151260907661,868.1023369702208,1098.6744969856436,622.5282134142817
1533045071.196,1097.0388603546855,854.5641136437291,863.1795758164992,1087.5493859393332,525.6456480604298
1533045071.2,1126.1866459928287,836.9231692532978,856.6150540731938,1056.9539064566225,476.17217281611465
1533045071.204,1179.180153115612,880.4105001620395,864.8204962010731,1070.858871159154,342.1855564406494
1533045071.208,1163.284814420002,875.896918848199,866.4614165856469,1098.6744969856436,430.82324619486417
1533045071.2120001,1136.7853474173853,861.9486754768163,861.1277951820244,1104.2399007195122,704.9811910571456
1533045071.215,1144.7357302064154,831.5895478496753,853.3332133040462,1126.4901228121334,816.2975657684779
1533045071.2189999,1115.5879445682722,834.0513485290411,856.6150540731938,1070.858871159154,777.129129612086
1533045071.2229998,1139.433666052912,897.6405843025698,869.7432573547945,1090.329239595554,713.2260666567827
1533045071.2270002,1179.180153115612,893.9487234885312,868.1023369702208,1140.395087514665,556.5649869706922
1533045071.231,1144.7357302064154,888.6151020849087,865.6405362908549,1093.1147896732018,443.1926704175661
1533045071.235,1110.2858804147688,851.2822728745814,864.8204962010731,1065.299163846712,544.1955627479903
1533045071.2389998,1057.2869464095359,805.7431613313648,863.5895958613902,1056.9539064566225,618.403664791217
1533045071.2429998,1062.589010563039,882.4614405915044,869.7432573547945,1054.1740528004016,655.5119374593227
1533045071.2470002,1102.335497625739,911.9996879238535,869.7432573547945,1098.6744969856436,577.1792867930312
1533045071.2510002,1078.489776141099,889.8460024245916,872.6150780790513,1137.6152338584438,461.7425851051265
1533045071.255,1062.589010563039,860.3077550922425,868.5123570151117,1098.6744969856436,657.5721009476089
1533045071.258,1075.8360306231225,827.4868267857357,868.5123570151117,1065.299163846712,851.3372316553126
1533045071.262,1120.8845818393256,838.5640896378717,867.2822968804388,1065.299163846712,692.615988480936
1533045071.266,1134.1370287818588,884.5123810209691,863.9996159062812,1101.4543506418647,810.112853657127
1533045071.27,1099.6871789902123,909.1278671995967,863.9996159062812,1101.4543506418647,700.8608640805732
1533045071.274,1083.7864134121523,883.2823208862962,858.6668347076687,1073.6444212368017,453.4977095054894
1533045071.2779999,1094.385114836709,805.3331412864738,857.8459544128767,1048.6086490665327,748.2699541901098
1533045071.282,1081.1380947766256,839.7949899775546,863.9996159062812,1012.4477658499535,919.3648432336807
1533045071.286,1160.6310689020254,925.948771500246,870.9741576944774,1081.9839822054646,950.2841821439431
1533045071.29,1248.079852698905,898.0514445524708,868.1023369702208,1173.7761170750232,791.558717323074
1533045071.294,1089.0884775656557,871.7950379892694,874.6668587135262,1095.8946433294227,733.8403664791217
1533045071.2970002,1004.2934392867526,847.9995919004238,873.4359583738432,1029.1382806301326,894.6259947882769
1533045071.301,1123.532900474852,857.8459544128767,874.2559984636251,1112.5794616881751,1030.6769962985206
1533045071.305,1197.7292373291987,858.6668347076687,867.2822968804388,1151.5201985609754,803.9281415457759
1533045071.309,1120.8845818393256,867.6923169253298,857.8459544128767,1079.2041285492435,694.6761519692221
1533045071.313,1086.434732047679,877.9486994826738,864.8204962010731,1073.6444212368017,630.7730890139188
1533045071.3170002,1123.532900474852,838.5640896378717,864.4104761561821,1101.4543506418647,657.5721009476089
1533045071.321,1120.8845818393256,835.282248868724,863.1795758164992,1084.769532283112,789.4985538347879
1533045071.325,1152.6806861129955,895.589643873105,874.2559984636251,1118.1448654220437,808.0484685223483
1533045071.329,1200.382982847175,919.3842497569407,875.896918848199,1129.2699764683543,972.9586454545683
1533045071.333,1181.8338986335884,889.4359823797006,867.6923169253298,1115.3650117658228,760.6393784128117
1533045071.3370001,1120.8845818393256,831.9995678945663,859.4868747974506,1073.6444212368017,678.1864007699479
1533045071.34,1147.384048841942,828.7177271254186,861.5386554319253,1051.3885027227539,721.4751639029122
1533045071.3439999,1203.0313014827018,886.154141610553,869.3332373099037,1070.858871159154,855.4617802783774
1533045071.3479998,1165.9331330555287,873.8459784187341,862.7687155665983,1079.2041285492435,865.7668193663008
1533045071.3520002,1139.433666052912,842.2559504519103,856.6150540731938,1059.7337601128434,587.4843258809545
1533045071.356,1120.8845818393256,798.3585994982776,853.3332133040462,1020.7930232400431,626.6527620373465
1533045071.36,1126.1866459928287,744.6148860321919,850.0513725348985,984.6378364448905,570.9945746816803
1533045071.3639998,1155.334431630972,857.4359343679857,862.3586955217073,998.542801147422,698.7964789457945
1533045071.3679998,1181.8338986335884,937.025194147372,873.0250981239423,1045.8287954103118,902.870870387914
1533045071.3720002,1184.4822172691152,900.9232652767275,864.8204962010731,1056.9539064566225,737.9649151021864
1533045071.3760002,1139.433666052912,831.1795278047844,856.2050340283029,1065.299163846712,472.05184583954224
1533045071.379,1091.7367962011822,795.8976390239218,853.7432333489371,1012.4477658499535,354.55075901685893
1533045071.383,1136.7853474173853,863.1795758164992,863.5895958613902,1018.0131695838222,350.4304320402866
1533045071.387,1163.284814420002,902.9742057061923,874.6668587135262,1062.5136137690642,641.0823497483345
1533045071.391,1160.6310689020254,900.9232652767275,870.9741576944774,1056.9539064566225,946.1596335208783
1533045071.395,1131.4832832638822,843.8977110414942,863.1795758164992,1045.8287954103118,851.3372316553126
1533045071.399,1078.489776141099,791.3848979150913,864.8204962010731,1037.4835380202223,655.5119374593227
1533045071.4029999,1123.532900474852,841.4359103621283,870.9741576944774,1026.3584269739117,608.0986257032937
1533045071.407,1065.2373291985657,889.0251221297997,863.9996159062812,1012.4477658499535,659.6322644358951
1533045071.411,1062.589010563039,879.9996399121386,858.2559744577677,1006.8880585375116,525.6456480604298
1533045071.415,1094.385114836709,843.0768307467022,863.1795758164992,1054.1740528004016,397.8395221498232
1533045071.419,1065.2373291985657,785.6412564665778,857.0259143230949,1004.102508459864,597.7935866153703
1533045071.4220002,1134.1370287818588,854.97413368862,868.1023369702208,1009.6679121937326,773.0088026355136
1533045071.426,1173.8835158445586,916.5124290326839,874.2559984636251,1073.6444212368017,711.1659031684965
1533045071.43,1104.9838162612657,884.9232412708701,861.1277951820244,1045.8287954103118,494.7263091501675
1533045071.434,1102.335497625739,846.7686915607409,866.4614165856469,1079.2041285492435,476.17217281611465
1533045071.438,1078.489776141099,838.1540695929807,863.9996159062812,1073.6444212368017,680.2465642582341
1533045071.4420002,1065.2373291985657,879.1795998223566,857.8459544128767,1020.7930232400431,977.0789724311406
1533045071.446,1136.7853474173853,871.3841777393684,857.0259143230949,1031.9181342863537,1051.2912961208597
1533045071.45,1123.532900474852,856.2050340283029,857.4359343679857,1068.079017502933,799.8035929227112
1533045071.454,1115.5879445682722,864.4104761561821,860.7177751371335,1051.3885027227539,523.5854845721436
1533045071.458,1104.9838162612657,838.1540695929807,860.7177751371335,1020.7930232400431,568.9344111933941
1533045071.4620001,1107.637561779242,850.8714126246804,857.4359343679857,1023.5728768962641,511.21606034944176
1533045071.465,1115.5879445682722,900.9232652767275,860.3077550922425,1062.5136137690642,740.0250785904726
1533045071.4689999,1081.1380947766256,885.743281360652,857.8459544128767,1045.8287954103118,742.0852420787588
1533045071.4729998,1091.7367962011822,872.6150780790513,851.6922929194724,1018.0131695838222,581.2996137696036
1533045071.4770002,1102.335497625739,806.1540215812659,852.1023129643633,1034.7036843640012,853.4016167900912
1533045071.481,1104.9838162612657,799.5894998379605,860.3077550922425,1015.2333159276012,923.485170210253
1533045071.485,1155.334431630972,874.2559984636251,864.4104761561821,1045.8287954103118,461.7425851051265
1533045071.4889998,1131.4832832638822,867.2822968804388,862.3586955217073,1043.0432453326641,643.1425132366207
1533045071.4929998,1094.385114836709,850.4613925797895,861.9486754768163,1031.9181342863537,946.1596335208783
1533045071.4970002,1083.7864134121523,782.3585754924202,848.8204721952156,1018.0131695838222,562.7496990820432
1533045071.5010002,1070.539393352069,785.6412564665778,852.5123330092542,967.9473216647114,577.1792867930312
1533045071.504,1126.1866459928287,896.4105241678969,866.051396540756,1009.6679121937326,742.0852420787588
1533045071.508,1152.6806861129955,898.0514445524708,855.795013983412,1087.5493859393332,692.615988480936
1533045071.512,1089.0884775656557,869.7432573547945,850.0513725348985,1073.6444212368017,608.0986257032937
1533045071.516,1036.0895435604225,831.9995678945663,854.5641136437291,1020.7930232400431,575.1191233047451
1533045071.52,1067.8856478340924,829.5386074202105,859.8977350473516,1054.1740528004016,717.3506152798474
1533045071.524,1123.532900474852,868.1023369702208,861.1277951820244,1093.1147896732018,760.6393784128117
1533045071.5279999,1155.334431630972,870.5641376495865,861.5386554319253,1048.6086490665327,558.6251504589784
1533045071.532,1123.532900474852,878.7687395724557,865.230516245964,1029.1382806301326,678.1864007699479
1533045071.536,1102.335497625739,838.5640896378717,860.7177751371335,1062.5136137690642,715.2904517915613
1533045071.54,1107.637561779242,797.1276991585947,858.2559744577677,1059.7337601128434,641.0823497483345
1533045071.544,1142.0819846884388,843.8977110414942,863.1795758164992,1034.7036843640012,886.3811191886398
1533045071.5470002,1136.7853474173853,857.8459544128767,862.7687155665983,1043.0432453326641,808.0484685223483
1533045071.551,1099.6871789902123,875.486898803308,863.1795758164992,1037.4835380202223,799.8035929227112
1533045071.555,1094.385114836709,847.5895718555328,857.4359343679857,1029.1382806301326,909.055582499265
1533045071.559,1078.489776141099,797.1276991585947,847.9995919004238,998.542801147422,593.6690379923056
1533045071.563,1104.9838162612657,861.5386554319253,859.0768547525596,1009.6679121937326,595.7292014805918
1533045071.5670002,1144.7357302064154,892.7178231488483,868.9232172650127,1070.858871159154,886.3811191886398
1533045071.571,1134.1370287818588,887.7950619951268,866.051396540756,1093.1147896732018,750.3301176783959
1533045071.575,1126.1866459928287,847.5895718555328,858.6668347076687,1079.2041285492435,803.9281415457759
1533045071.579,1091.7367962011822,778.6667146783815,853.7432333489371,990.1975437573325,641.0823497483345
1533045071.583,1091.7367962011822,854.1540935988381,863.9996159062812,945.6970995720902,729.7200395025493
1533045071.5870001,1134.1370287818588,887.3842017452258,866.8714366305378,1026.3584269739117,995.6331087651936
1533045071.59,1112.9341990502955,871.7950379892694,866.051396540756,1087.5493859393332,855.4617802783774
1533045071.5939999,1083.7864134121523,880.8205202069305,866.8714366305378,1076.4242748930226,822.4780562333365
1533045071.5979998,1091.7367962011822,802.4613205622172,863.5895958613902,1001.322654803643,698.7964789457945
1533045071.6020002,1120.8845818393256,811.4868027798783,863.9996159062812,981.8522863672429,573.0547381699665
1533045071.606,1144.7357302064154,892.3078031039573,865.230516245964,1040.2633916764432,459.6824216168404
1533045071.61,1171.229770326582,914.8715086481102,866.8714366305378,1079.2041285492435,589.5487110157331
1533045071.6139998,1163.284814420002,875.896918848199,861.1277951820244,1054.1740528004016,461.7425851051265
1533045071.6179998,1110.2858804147688,838.1540695929807,859.8977350473516,1020.7930232400431,521.5210994373651
1533045071.6220002,1123.532900474852,855.384153733511,862.7687155665983,1009.6679121937326,669.9415251703108
1533045071.6260002,1155.334431630972,890.6668827193836,864.8204962010731,1048.6086490665327,663.7568130589598
1533045071.629,1107.637561779242,887.3842017452258,863.1795758164992,1054.1740528004016,690.5516033461574
1533045071.633,1104.9838162612657,852.1023129643633,859.8977350473516,1034.7036843640012,641.0823497483345
1533045071.637,1136.7853474173853,789.7431373255074,855.384153733511,1040.2633916764432,552.4446599941199
1533045071.641,1144.7357302064154,814.769483754036,854.97413368862,1023.5728768962641,519.4609359490789
1533045071.645,1165.9331330555287,918.5642096671588,872.2050580341603,1043.0432453326641,704.9811910571456
1533045071.649,1112.9341990502955,923.4869708208803,873.4359583738432,1043.0432453326641,851.3372316553126
1533045071.6529999,1086.434732047679,895.589643873105,859.0768547525596,1029.1382806301326,876.0760801007165
1533045071.657,1070.539393352069,853.3332133040462,861.1277951820244,1026.3584269739117,911.1157459875511
1533045071.661,1083.7864134121523,829.1277471703096,862.3586955217073,1009.6679121937326,773.0088026355136
1533045071.665,1142.0819846884388,881.2305402518215,865.6405362908549,1056.9539064566225,665.816976547246
1533045071.669,1134.1370287818588,902.1533254114004,868.5123570151117,1079.2041285492435,694.6761519692221
1533045071.6720002,1099.6871789902123,877.1278191878819,862.7687155665983,1048.6086490665327,599.8537501036565
1533045071.676,1081.1380947766256,854.1540935988381,861.5386554319253,1015.2333159276012,663.7568130589598
1533045071.68,1081.1380947766256,819.6922449077575,860.7177751371335,1006.8880585375116,632.833252502205
1533045071.684,1115.5879445682722,853.7432333489371,866.8714366305378,1009.6679121937326,678.1864007699479
1533045071.688,1160.6310689020254,908.7178471547057,870.5641376495865,1029.1382806301326,853.4016167900912
1533045071.6920002,1131.4832832638822,891.8969428540564,865.230516245964,1054.1740528004016,614.2833378146446
1533045071.696,1120.8845818393256,820.9231452474404,856.2050340283029,1062.5136137690642,338.06100781758465
1533045071.7,1134.1370287818588,809.0258423055226,853.3332133040462,1051.3885027227539,311.26621753038705
1533045071.704,1189.7788545401686,878.3587195275647,863.9996159062812,1065.299163846712,733.8403664791217
1533045071.708,1245.4261071809283,894.7687635783132,866.051396540756,1109.7996080319542,773.0088026355136
1533045071.7120001,1208.3279387537552,887.3842017452258,866.8714366305378,1062.5136137690642,760.6393784128117
1533045071.715,1187.1305359046419,841.0258903172374,863.9996159062812,1031.9181342863537,1078.0860864080573
1533045071.7189999,1179.180153115612,807.7949419658397,864.4104761561821,1043.0432453326641,1016.2474085875326
1533045071.7229998,1160.6310689020254,877.1278191878819,880.4105001620395,1040.2633916764432,876.0760801007165
1533045071.7270002,1200.382982847175,871.3841777393684,874.2559984636251,1051.3885027227539,678.1864007699479
1533045071.731,1187.1305359046419,872.6150780790513,873.4359583738432,1104.2399007195122,618.403664791217
1533045071.735,1112.9341990502955,863.1795758164992,878.3587195275647,1090.329239595554,735.9047516139003
1533045071.7389998,1086.434732047679,793.435838344556,869.7432573547945,1037.4835380202223,690.5516033461574
1533045071.7429998,1128.8349646283555,854.5641136437291,874.6668587135262,1068.079017502933,606.0384622150075
1533045071.7470002,1173.8835158445586,911.9996879238535,874.2559984636251,1120.9247190782648,455.55787299377556
1533045071.7510002,1123.532900474852,913.6406083084272,873.8459784187341,1134.835380202223,659.6322644358951
1533045071.754,1102.335497625739,882.0514205466134,869.7432573547945,1120.9247190782648,853.4016167900912
1533045071.758,1107.637561779242,841.0258903172374,864.4104761561821,1109.7996080319542,785.3740052117231
1533045071.762,1128.8349646283555,866.8714366305378,874.6668587135262,1126.4901228121334,857.5219437666635
1533045071.766,1128.8349646283555,891.8969428540564,875.076878758417,1126.4901228121334,791.558717323074
1533045071.77,1136.7853474173853,886.564161655444,870.1541176046956,1126.4901228121334,513.2762238377279
1533045071.774,1157.9827502664987,852.1023129643633,870.9741576944774,1101.4543506418647,577.1792867930312
1533045071.7779999,1118.236263203799,827.0768067408447,867.6923169253298,1059.7337601128434,704.9811910571456
1533045071.782,1107.637561779242,859.0768547525596,873.8459784187341,1054.1740528004016,630.7730890139188
1533045071.786,1120.8845818393256,891.8969428540564,883.2823208862962,1079.2041285492435,746.2097907018236
1533045071.79,1112.9341990502955,886.9741817003348,882.8714606363952,1081.9839822054646,781.2536782351507
1533045071.794,1134.1370287818588,865.6405362908549,880.4105001620395,1090.329239595554,746.2097907018236
1533045071.7970002,1163.284814420002,834.4613685739321,872.2050580341603,1176.555970731244,676.1220156351693
1533045071.801,1168.5814516910552,838.5640896378717,872.2050580341603,1145.9604912485336,575.1191233047451
1533045071.805,1134.1370287818588,875.486898803308,884.5123810209691,1056.9539064566225,517.4007724607927
1533045071.809,1070.539393352069,871.7950379892694,877.1278191878819,1001.322654803643,492.66192401538893
1533045071.813,1020.1887779823626,862.7687155665983,870.1541176046956,967.9473216647114,595.7292014805918
1533045071.8170002,998.9913751332493,834.0513485290411,876.3077790980999,1015.2333159276012,711.1659031684965
1533045071.821,964.5469522240527,812.7177031195612,875.486898803308,981.8522863672429,707.045576191924
1533045071.825,927.4487837968795,856.6150540731938,871.7950379892694,912.3160700117319,746.2097907018236
1533045071.829,972.4919081306329,882.8714606363952,871.3841777393684,967.9473216647114,764.7597053893841
1533045071.833,993.6947378621959,900.9232652767275,878.7687395724557,1051.3885027227539,884.3209557003536
1533045071.836,964.5469522240527,837.7432093430797,871.3841777393684,981.8522863672429,1069.84121080842
1533045071.84,943.3441224924895,770.4612725505024,860.7177751371335,906.75636269929,867.8312045010792
1533045071.8439999,1046.688244984979,868.1023369702208,875.896918848199,1001.322654803643,608.0986257032937
1533045071.8479998,1123.532900474852,909.1278671995967,876.3077790980999,1070.858871159154,620.4680499259955
1533045071.8520002,1118.236263203799,875.896918848199,877.1278191878819,1093.1147896732018,443.1926704175661
1533045071.856,1134.1370287818588,837.3331892981888,870.5641376495865,1079.2041285492435,465.8671337281913
1533045071.86,1131.4832832638822,828.3077070805276,854.5641136437291,1037.4835380202223,676.1220156351693
1533045071.8639998,1189.7788545401686,867.2822968804388,863.5895958613902,1084.769532283112,851.3372316553126
1533045071.8679998,1226.8770229673419,847.5895718555328,863.1795758164992,1118.1448654220437,634.8976376369836
1533045071.8720002,1187.1305359046419,863.5895958613902,860.7177751371335,1090.329239595554,742.0852420787588
1533045071.8760002,1205.6796201182285,839.3841297276535,855.384153733511,1112.5794616881751,713.2260666567827
1533045071.879,1192.4326000581452,770.8712925953932,853.7432333489371,1076.4242748930226,498.84663612673984
1533045071.883,1144.7357302064154,857.0259143230949,867.2822968804388,1048.6086490665327,748.2699541901098
1533045071.887,1181.8338986335884,902.9742057061923,867.2822968804388,1148.7403449047545,760.6393784128117
1533045071.891,1173.8835158445586,905.0251461356571,865.230516245964,1140.395087514665,719.4107787681336
1533045071.895,1173.8835158445586,872.6150780790513,866.051396540756,1145.9604912485336,649.3272253479718
1533045071.899,1184.4822172691152,841.8459304070193,864.8204962010731,1143.1806375923125,682.3067277465203
1533045071.9029999,1213.6300029072584,871.3841777393684,858.2559744577677,1115.3650117658228,768.8842540124489
1533045071.907,1232.179087120845,893.5387034436402,863.9996159062812,1159.865455951065,737.9649151021864
1533045071.911,1237.4757243918984,887.7950619951268,866.051396540756,1159.865455951065,552.4446599941199
1533045071.915,1213.6300029072584,837.7432093430797,856.6150540731938,1162.6510060287126,577.1792867930312
1533045071.919,1176.5318344800853,826.6667866959538,857.0259143230949,1132.0498301245752,849.2770681670264
1533045071.9220002,1184.4822172691152,857.0259143230949,861.1277951820244,1093.1147896732018,785.3740052117231
1533045071.926,1240.129469909875,884.9232412708701,867.2822968804388,1148.7403449047545,777.129129612086
1533045071.93,1250.7281713344316,897.6405843025698,869.3332373099037,1165.4308596849337,793.6188808113602
1533045071.934,1197.7292373291987,877.9486994826738,859.0768547525596,1159.865455951065,849.2770681670264
1533045071.938,1187.1305359046419,793.0258182996652,841.4359103621283,1104.2399007195122,737.9649151021864
1533045071.9420002,1173.8835158445586,797.1276991585947,842.2559504519103,1068.079017502933,560.689535593757
1533045071.946,1208.3279387537552,875.896918848199,863.9996159062812,1123.7102691559123,488.5415970388165
1533045071.95,1213.6300029072584,892.7178231488483,862.7687155665983,1107.0197543757333,496.7864726384537
1533045071.954,1152.6806861129955,877.9486994826738,848.4104521503247,1054.1740528004016,618.403664791217
1533045071.958,1144.7357302064154,846.7686915607409,851.2822728745814,1087.5493859393332,733.8403664791217
1533045071.961,1189.7788545401686,829.9486274651015,859.8977350473516,1101.4543506418647,822.4780562333365
1533045071.965,1226.8770229673419,852.5123330092542,859.8977350473516,1098.6744969856436,523.5854845721436
1533045071.9689999,1192.4326000581452,899.2815046871436,862.3586955217073,1073.6444212368017,624.5883769025679
1533045071.9729998,1189.7788545401686,905.4360063855581,867.2822968804388,1084.769532283112,904.9352555226926
1533045071.9770002,1163.284814420002,808.6149820556216,854.1540935988381,1062.5136137690642,793.6188808113602
1533045071.981,1139.433666052912,794.255878434338,849.2304922401066,1037.4835380202223,746.2097907018236
1533045071.985,1205.6796201182285,898.8714846422527,868.9232172650127,1145.9604912485336,775.0689661237998
1533045071.9889998,1208.3279387537552,911.1796478340715,872.2050580341603,1143.1806375923125,979.1433575659192
1533045071.9929998,1168.5814516910552,889.8460024245916,863.9996159062812,1104.2399007195122,904.9352555226926
1533045071.9970002,1195.080918693672,851.6922929194724,857.0259143230949,1120.9247190782648,787.4383903465017
1533045072.0010002,1163.284814420002,829.9486274651015,851.2822728745814,1118.1448654220437,717.3506152798474
1533045072.004,1139.433666052912,876.7177991429909,863.5895958613902,1101.4543506418647,709.1057396802103
1533045072.008,1142.0819846884388,884.5123810209691,873.4359583738432,1101.4543506418647,933.7944309446688
1533045072.012,1120.8845818393256,865.6405362908549,868.9232172650127,1112.5794616881751,698.7964789457945
1533045072.016,1115.5879445682722,818.0513245231837,860.3077550922425,1065.299163846712,453.4977095054894
1533045072.02,1102.335497625739,789.3331172806164,852.5123330092542,998.542801147422,496.7864726384537
1533045072.024,1134.1370287818588,865.6405362908549,860.3077550922425,1056.9539064566225,453.4977095054894
1533045072.0279999,1229.5307684853183,909.5387274494976,865.6405362908549,1157.085602294844,647.2628402131932
1533045072.032,1216.278321542785,905.846026430449,860.3077550922425,1173.7761170750232,952.3443456322293
1533045072.036,1139.433666052912,847.9995919004238,850.4613925797895,1104.2399007195122,791.558717323074
1533045072.04,1099.6871789902123,820.1022649526484,848.4104521503247,1045.8287954103118,593.6690379923056
1533045072.044,1118.236263203799,844.717751131276,855.384153733511,1065.299163846712,591.6088745040194
1533045072.0470002,1171.229770326582,862.3586955217073,859.0768547525596,1112.5794616881751,437.00795830621513
1533045072.051,1160.6310689020254,869.3332373099037,857.4359343679857,1118.1448654220437,354.55075901685893
1533045072.055,1123.532900474852,818.4613445680747,850.0513725348985,1118.1448654220437,538.0150722831318
1533045072.059,1102.335497625739,763.486730762306,847.5895718555328,1079.2041285492435,711.1659031684965
1533045072.063,1104.9838162612657,838.9741096827626,856.6150540731938,1040.2633916764432,746.2097907018236
1533045072.0670002,1152.6806861129955,900.1023849819356,864.4104761561821,1107.0197543757333,729.7200395025493
1533045072.071,1144.7357302064154,894.7687635783132,863.5895958613902,1090.329239595554,748.2699541901098
1533045072.075,1128.8349646283555,857.4359343679857,856.6150540731938,1037.4835380202223,740.0250785904726
1533045072.079,1089.0884775656557,822.1540455871233,853.7432333489371,1062.5136137690642,737.9649151021864
1533045072.083,1128.8349646283555,838.1540695929807,856.6150540731938,1056.9539064566225,593.6690379923056
1533045072.086,1144.7357302064154,866.4614165856469,860.3077550922425,1073.6444212368017,554.504823482406
1533045072.09,1115.5879445682722,891.8969428540564,864.4104761561821,1076.4242748930226,1001.8178208765445
1533045072.0939999,1160.6310689020254,859.0768547525596,857.0259143230949,1073.6444212368017,1001.8178208765445
1533045072.0979998,1168.5814516910552,811.4868027798783,855.384153733511,1101.4543506418647,603.9782987267213
1533045072.1020002,1171.229770326582,810.2559024401954,865.6405362908549,1068.079017502933,597.7935866153703
1533045072.106,1189.7788545401686,857.0259143230949,870.5641376495865,1079.2041285492435,579.2394502813174
1533045072.11,1181.8338986335884,886.564161655444,871.7950379892694,1126.4901228121334,659.6322644358951
1533045072.1139998,1179.180153115612,867.2822968804388,872.6150780790513,1154.305748638623,667.8771400355322
1533045072.1179998,1157.9827502664987,800.8204001776434,865.230516245964,1093.1147896732018,591.6088745040194
1533045072.1220002,1120.8845818393256,809.4358623504135,867.6923169253298,1037.4835380202223,647.2628402131932
1533045072.1260002,1165.9331330555287,893.5387034436402,875.486898803308,1059.7337601128434,511.21606034944176
1533045072.129,1205.6796201182285,905.0251461356571,877.1278191878819,1095.8946433294227,533.890523660067
1533045072.133,1197.7292373291987,883.2823208862962,877.9486994826738,1132.0498301245752,659.6322644358951
1533045072.137,1128.8349646283555,848.8204721952156,869.7432573547945,1059.7337601128434,678.1864007699479
1533045072.141,1126.1866459928287,842.2559504519103,871.3841777393684,1020.7930232400431,618.403664791217
1533045072.145,1205.6796201182285,866.4614165856469,870.5641376495865,1059.7337601128434,672.001688658597
1533045072.149,1163.284814420002,854.5641136437291,864.4104761561821,1048.6086490665327,869.8913679893654
1533045072.1529999,1115.5879445682722,846.7686915607409,863.9996159062812,1065.299163846712,777.129129612086
1533045072.157,1126.1866459928287,848.4104521503247,867.2822968804388,1068.079017502933,729.7200395025493
1533045072.161,1083.7864134121523,847.9995919004238,864.8204962010731,1012.4477658499535,968.8340968315035
1533045072.165,1089.0884775656557,868.5123570151117,865.6405362908549,1006.8880585375116,898.7505434113417
1533045072.169,1094.385114836709,861.5386554319253,868.9232172650127,1026.3584269739117,639.017964613556
1533045072.1720002,1123.532900474852,875.486898803308,872.6150780790513,1068.079017502933,552.4446599941199
1533045072.176,1115.5879445682722,823.3841057217961,863.5895958613902,1062.5136137690642,610.1587891915798
1533045072.18,1078.489776141099,783.9994958769939,857.4359343679857,995.7629474912011,546.2599478827689
1533045072.184,1123.532900474852,867.6923169253298,872.6150780790513,1001.322654803643,552.4446599941199
1533045072.188,1147.384048841942,894.3587435334222,874.2559984636251,1012.4477658499535,647.2628402131932
1533045072.1920002,1102.335497625739,886.564161655444,869.3332373099037,1012.4477658499535,597.7935866153703
1533045072.196,1083.7864134121523,815.1795037989269,861.9486754768163,1026.3584269739117,589.5487110157331
1533045072.2,1073.1877119875958,787.2821768511517,862.3586955217073,984.6378364448905,647.2628402131932
1533045072.204,1059.9406919275123,876.3077790980999,871.7950379892694,987.4176901011115,795.6832659461388
1533045072.208,1089.0884775656557,902.1533254114004,873.8459784187341,1004.102508459864,661.6924279241813
1533045072.211,1094.385114836709,889.0251221297997,874.2559984636251,1012.4477658499535,492.66192401538893
1533045072.215,1051.9903091384824,854.5641136437291,867.2822968804388,979.0724327110219,616.3435013029308
1533045072.2189999,1046.688244984979,839.3841297276535,868.1023369702208,1006.8880585375116,678.1864007699479
1533045072.2229998,1059.9406919275123,846.3586715158499,870.5641376495865,1065.299163846712,606.0384622150075
1533045072.2270002,1107.637561779242,858.6668347076687,868.5123570151117,1081.9839822054646,614.2833378146446
1533045072.231,1128.8349646283555,888.6151020849087,875.076878758417,1079.2041285492435,620.4680499259955
1533045072.235,1107.637561779242,863.1795758164992,868.9232172650127,1068.079017502933,651.387388836258
1533045072.2389998,1083.7864134121523,846.7686915607409,872.2050580341603,1051.3885027227539,987.3882331655564
1533045072.2429998,1104.9838162612657,835.282248868724,871.3841777393684,1051.3885027227539,981.2035210542055
1533045072.2470002,1112.9341990502955,844.307731086385,859.0768547525596,1043.0432453326641,550.3802748593413
1533045072.2510002,1097.0388603546855,894.3587435334222,862.7687155665983,1023.5728768962641,424.6385340835132
1533045072.254,1110.2858804147688,873.4359583738432,862.3586955217073,1062.5136137690642,595.7292014805918
1533045072.258,1081.1380947766256,784.8203761717859,858.2559744577677,1026.3584269739117,564.8098625703294
1533045072.262,1075.8360306231225,824.204986016588,860.7177751371335,973.5070289771533,560.689535593757
1533045072.266,1075.8360306231225,897.6405843025698,862.3586955217073,984.6378364448905,535.9506871483532
