timestamps,TP9,AF7,AF8,TP10,Right AUX
1533223253.545,875.3473989435583,705.1055019470958,638.5153547507957,936.2588627077025,1126.1566160667064
1533223253.549,867.0311153467904,686.7093707255455,448.93050255049593,909.9166473148777,1089.2295227699822
1533223253.553,883.6636825403261,754.153480480458,503.09748312050436,875.4646652799258,892.3060303599761
1533223253.5570002,891.9799661370939,766.4217536568776,734.949102636638,871.4097819588624,1123.0751572574748
1533223253.561,860.7928380967828,748.0256224353273,668.4709480581264,865.3295321478511,1295.3847885041691
1533223253.565,881.5856761935659,766.4217536568776,549.8780954496272,889.6505313918962,1230.7686767866587
1533223253.569,906.5345269838693,760.2813385255889,319.25767737539786,901.8110310139186,738.4599457616438
1533223253.573,881.5856761935659,766.4217536568776,319.25767737539786,885.5956480708327,704.6143112741513
1533223253.5770001,879.5034116370787,754.153480480458,660.6744594734528,871.4097819588624,1076.9225921883265
1533223253.58,875.3473989435583,711.2333599922266,699.2476224635734,853.1731828669965,741.5414045708756
1533223253.5839999,889.9019597903338,692.8372287706762,604.866157117752,861.2787991679555,676.9252928533651
1533223253.5879998,879.5034116370787,711.2333599922266,565.4719130295149,863.3041656579034,1086.1543655125074
1533223253.592,864.9488507903033,760.2813385255889,530.1805532002384,855.1985493569443,956.9221420774866
1533223253.596,875.3473989435583,784.817884878428,534.6943982135273,861.2787991679555,729.2281724374627
1533223253.6,887.8196952338466,797.0736009686894,577.3721262836896,847.0929330559853,1030.7700271191782
1533223253.6039999,921.0890878306448,778.6774697471393,572.0372001722842,871.4097819588624,1095.3861388366886
1533223253.6079998,935.6436486774202,760.2813385255889,505.55904559377257,867.3590489789668,1098.4612960941631
1533223253.6120002,925.2493587338921,784.817884878428,460.00963470655415,843.0380497349219,1178.4657972025611
1533223253.6160002,908.6125333306295,741.8977643901965,476.0135726302299,855.1985493569443,886.1557158450269
1533223253.62,975.1470603144991,717.3612180373573,571.6270798284962,877.4900317698737,680.0004501108398
1533223253.623,979.3073312177464,754.153480480458,627.025261840409,885.5956480708327,812.3078308033354
1533223253.627,883.6636825403261,772.5496117020084,472.7309290588452,859.2534326780078,784.6188123825492
1533223253.631,869.1091216935507,772.5496117020084,439.902812523918,847.0929330559853,680.0004501108398
1533223253.635,873.2651343870712,735.7573492589077,601.5826731358269,841.012683244974,800.0009002216796
1533223253.639,856.6325671935355,748.0256224353273,569.1646769446875,849.118299545933,553.8433839332936
1533223253.643,889.9019597903338,766.4217536568776,592.5549831092488,875.4646652799258,603.0774078116737
1533223253.647,950.1982095241956,784.817884878428,542.0816068649535,889.6505313918962,1178.4657972025611
1533223253.651,914.8508105806371,778.6774697471393,472.7309290588452,883.5702815808849,1040.0018004433591
1533223253.655,900.2962497338617,778.6774697471393,534.6943982135273,869.3844154689145,507.6908188641453
1533223253.659,914.8508105806371,797.0736009686894,527.3080299726416,887.6251649019483,726.1530151799881
1533223253.6620002,979.3073312177464,784.817884878428,556.8543433467249,907.8871304837619,956.9221420774866
1533223253.6660001,1006.3341883548101,827.7380053666594,517.8702196022757,875.4646652799258,907.6944197508636
1533223253.67,887.8196952338466,852.2619946333406,554.802060806704,863.3041656579034,1009.2313232133413
1533223253.674,902.374256080622,815.4697321902398,671.3434712857231,857.223915846892,1024.6197126042289
1533223253.678,941.8819259274278,784.817884878428,658.212056589644,855.1985493569443,1120.0
1533223253.6820002,908.6125333306295,778.6774697471393,638.9254750945837,887.6251649019483,1055.3838882824896
1533223253.686,931.4833777741728,784.817884878428,503.91772380808027,879.5153982598214,753.8483351525313
1533223253.69,933.56564233066,772.5496117020084,488.324746638733,843.0380497349219,744.6165618283502
1533223253.694,912.772804233877,735.7573492589077,635.6428315231991,828.8521836229515,846.1534652908279
1533223253.698,933.56564233066,748.0256224353273,649.594486906854,869.3844154689145,879.9990997783204
1533223253.7020001,964.752770370971,784.817884878428,661.4947001610286,899.7815141828029,975.3856887258487
1533223253.705,1008.4164529112973,815.4697321902398,563.0095101457061,907.8871304837619,935.3834381716498
1533223253.7089999,987.6236148145142,839.993721456921,476.0135726302299,913.9673802947732,846.1534652908279
1533223253.7129998,914.8508105806371,772.5496117020084,555.2130215610325,905.8617639938142,806.157516288386
1533223253.717,906.5345269838693,766.4217536568776,567.5233551589952,899.7815141828029,483.0769577008338
1533223253.721,910.6947978871167,809.341874145109,619.2279328451949,887.6251649019483,606.1525650691483
1533223253.725,943.959932274188,803.2014590138202,663.136021946721,889.6505313918962,846.1534652908279
1533223253.7289999,950.1982095241956,821.5975902353706,491.6073902101176,907.8871304837619,873.8487852633712
1533223253.7329998,923.167094177405,827.7380053666594,525.6667081869493,887.6251649019483,726.1530151799881
1533223253.7370002,946.0379386209482,833.8658634117902,745.6181144489083,893.7012643717917,501.540504349196
1533223253.7410002,960.5924994677237,821.5975902353706,683.2436845398977,905.8617639938142,639.9981995566408
1533223253.744,1002.1781756612896,809.341874145109,619.6388935995234,918.0222636158367,723.0778579225134
1533223253.748,998.0179047580423,772.5496117020084,617.9975718138311,918.0222636158367,886.1557158450269
1533223253.752,960.5924994677237,754.153480480458,546.1844911239141,895.7307812029073,787.6939696400239
1533223253.756,952.2762158709559,766.4217536568776,573.6785219579765,885.5956480708327,729.2281724374627
1533223253.76,943.959932274188,754.153480480458,559.3159058199931,899.7815141828029,406.1539154016677
1533223253.764,958.5144931209634,772.5496117020084,616.3554096175982,907.8871304837619,560.0
1533223253.768,948.1202031774354,748.0256224353273,557.2644636905128,905.8617639938142,938.4648969808816
1533223253.772,931.4833777741728,729.6294912137769,381.63210728440845,897.7561476928552,710.7709273408577
1533223253.776,981.3853375645067,748.0256224353273,620.8700950414277,891.6758978818439,643.0796583658725
1533223253.78,1012.5724656048177,735.7573492589077,795.2712500056277,913.9673802947732,566.1566160667064
1533223253.784,1006.3341883548101,741.8977643901965,759.5706102431037,948.419362329725,947.6903687533055
1533223253.7870002,1012.5724656048177,748.0256224353273,634.8217504250827,924.102513426848,1116.9248427425252
1533223253.7910001,1014.6547301613049,717.3612180373573,556.8543433467249,903.8363975038664,803.0760574791542
1533223253.795,977.2293248709863,735.7573492589077,595.4275063368456,895.7307812029073,726.1530151799881
1533223253.799,954.354222217716,741.8977643901965,505.97000634810104,897.7561476928552,461.538253794997
1533223253.803,960.5924994677237,717.3612180373573,486.27246409871225,911.9420138048254,283.0783080333532
1533223253.8070002,998.0179047580423,723.5016331686462,514.997696374679,932.208129727807,443.07470714663486
1533223253.811,1006.3341883548101,741.8977643901965,594.1963048949411,946.3939958397772,698.4639967592019
1533223253.815,979.3073312177464,735.7573492589077,677.4986380847043,934.2334962177547,1003.081008698392
1533223253.819,968.9087830644914,717.3612180373573,586.8099366540555,913.9673802947732,686.1570661775462
1533223253.823,948.1202031774354,772.5496117020084,592.9651034530368,930.1827632378591,609.2340238783801
1533223253.826,929.4053714274125,778.6774697471393,554.802060806704,924.102513426848,1347.6939696400239
1533223253.83,916.9288169273974,754.153480480458,451.8030257780926,901.8110310139186,1243.0756073683144
1533223253.8339999,958.5144931209634,760.2813385255889,473.9621305007496,897.7561476928552,538.4612960941632
1533223253.8379998,958.5144931209634,711.2333599922266,509.6627702632736,889.6505313918962,550.7682266758189
1533223253.842,912.772804233877,741.8977643901965,540.0293243249328,883.5702815808849,738.4599457616438
1533223253.846,962.6747640242108,766.4217536568776,405.02241344896976,879.5153982598214,726.1530151799881
1533223253.85,977.2293248709863,760.2813385255889,343.0581038837472,863.3041656579034,664.6183622717094
1533223253.8539999,991.7796275080347,827.7380053666594,443.5955764390905,867.3590489789668,673.8438340441334
1533223253.8579998,1014.6547301613049,864.5177107236021,469.4482854874606,881.5449150909371,658.461746205003
1533223253.8620002,998.0179047580423,852.2619946333406,509.2526499194857,907.8871304837619,750.7668763432995
1533223253.865,987.6236148145142,827.7380053666594,519.10142104418,934.2334962177547,920.0013503325193
1533223253.869,1008.4164529112973,821.5975902353706,323.3614020448989,924.102513426848,898.4626464266826
1533223253.873,1022.9710137580727,815.4697321902398,381.63210728440845,903.8363975038664,916.9261930750447
1533223253.877,1022.9710137580727,815.4697321902398,624.1527386128124,913.9673802947732,655.3865889475284
1533223253.881,1014.6547301613049,790.9457429235589,616.7663703719267,918.0222636158367,578.4635466483621
1533223253.885,1012.5724656048177,735.7573492589077,553.9818201191282,938.2883795388182,830.7713774516975
1533223253.889,1018.8107428548253,723.5016331686462,467.8069637017683,954.4996121407362,833.8465347091721
1533223253.893,1058.3184127016311,735.7573492589077,434.9780067563005,952.4742456507885,963.078758144193
1533223253.897,1031.2872973548406,735.7573492589077,483.3999408711155,942.3391125187137,963.078758144193
1533223253.901,1041.6815872983686,729.6294912137769,572.4473205160721,954.4996121407362,809.2326735458606
1533223253.905,1043.7638518548558,729.6294912137769,588.4512584397478,980.845977874729,1092.3109815792138
1533223253.908,1006.3341883548101,723.5016331686462,466.165641916076,984.8967108546245,1049.2335737675403
1533223253.9120002,1068.7127026451592,717.3612180373573,443.5955764390905,1001.1079434565427,744.6165618283502
1533223253.9160001,1122.7706751290136,680.5815126804147,584.3475337702467,1017.3233263996286,932.3082809141752
1533223253.92,1089.5055407419422,637.6613921921834,615.9452892738102,1015.2938095685129,1030.7700271191782
1533223253.924,1091.5835470887025,637.6613921921834,583.9374134264589,1013.2684430785652,972.310531468374
1533223253.928,1077.028986241927,631.5335341470525,501.8662816786,1009.2135597575017,1092.3109815792138
1533223253.9320002,1035.443310048361,668.3132395039951,504.32868456240874,993.0023271555835,916.9261930750447
1533223253.936,1062.4744253951517,711.2333599922266,563.4196304894941,974.7657280637178,652.3051301382966
1533223253.94,1054.1581417983837,741.8977643901965,524.8464674993735,952.4742456507885,710.7709273408577
1533223253.944,998.0179047580423,809.341874145109,549.8780954496272,956.524978630684,956.9221420774866
1533223253.947,966.8307767177313,797.0736009686894,520.7427428298724,938.2883795388182,956.9221420774866
1533223253.951,973.0690539677388,803.2014590138202,599.9413513501346,926.1278799167957,1049.2335737675403
1533223253.955,975.1470603144991,821.5975902353706,695.1438977940724,924.102513426848,1055.3838882824896
1533223253.9589999,966.8307767177313,809.341874145109,670.5232305981472,901.8110310139186,987.6926193075045
1533223253.9629998,964.752770370971,809.341874145109,677.9095988390329,922.0729965957322,1160.002250554199
1533223253.967,973.0690539677388,809.341874145109,537.566921441124,909.9166473148777,1003.081008698392
1533223253.971,964.752770370971,797.0736009686894,521.1528631736603,879.5153982598214,812.3078308033354
1533223253.975,958.5144931209634,809.341874145109,695.9649788921888,877.4900317698737,821.5396041275164
1533223253.9789999,950.1982095241956,833.8658634117902,726.7416532976359,918.0222636158367,867.6921691966646
1533223253.9829998,966.8307767177313,839.993721456921,723.8691300700392,952.4742456507885,846.1534652908279
1533223253.9870002,1008.4164529112973,809.341874145109,618.407692157619,920.0476301057845,993.8492353742109
1533223253.99,983.4633439112669,778.6774697471393,563.0095101457061,909.9166473148777,898.4626464266826
1533223253.994,981.3853375645067,815.4697321902398,682.0124830979934,920.0476301057845,824.6147613849911
1533223253.998,1029.2092910080803,809.341874145109,718.5342039586338,926.1278799167957,836.9216919666468
1533223254.002,1033.3653037016006,797.0736009686894,776.8049091981433,928.1532464067435,858.4603958724836
1533223254.006,991.7796275080347,797.0736009686894,747.2594362346006,932.208129727807,935.3834381716498
1533223254.01,991.7796275080347,741.8977643901965,602.8138745777312,934.2334962177547,886.1557158450269
1533223254.014,1018.8107428548253,674.453654635284,776.3947888543554,930.1827632378591,846.1534652908279
1533223254.018,1029.2092910080803,729.6294912137769,904.0161718999732,938.2883795388182,686.1570661775462
1533223254.022,1014.6547301613049,778.6774697471393,886.781032534393,930.1827632378591,953.8469848200119
1533223254.026,1029.2092910080803,754.153480480458,753.0044826897939,922.0729965957322,913.8447342658129
1533223254.029,1068.7127026451592,803.2014590138202,688.5786106513032,913.9673802947732,643.0796583658725
1533223254.033,1058.3184127016311,790.9457429235589,778.0361106400477,889.6505313918962,840.0031507758786
1533223254.0370002,1031.2872973548406,741.8977643901965,783.3710367514531,891.6758978818439,775.3870390583681
1533223254.0410001,1043.7638518548558,748.0256224353273,834.6654940938648,895.7307812029073,695.3825379499701
1533223254.045,1020.8887492015855,717.3612180373573,818.6615561701891,891.6758978818439,643.0796583658725
1533223254.049,991.7796275080347,723.5016331686462,810.454106831187,905.8617639938142,858.4603958724836
1533223254.053,998.0179047580423,735.7573492589077,834.6654940938648,875.4646652799258,710.7709273408577
1533223254.0570002,1016.732736508065,760.2813385255889,849.0281102318482,891.6758978818439,449.2313232133413
1533223254.061,1031.2872973548406,797.0736009686894,895.808722560971,915.9968971258888,636.9230422991661
1533223254.065,1010.4944592580575,821.5975902353706,927.4064780645346,899.7815141828029,1043.0769577008339
1533223254.069,1025.0490201048328,821.5975902353706,906.4777343732413,913.9673802947732,1049.2335737675403
1533223254.072,1029.2092910080803,790.9457429235589,945.8719784614784,901.8110310139186,621.5409544600358
1533223254.076,1012.5724656048177,784.817884878428,986.4974239916199,905.8617639938142,658.461746205003
1533223254.08,991.7796275080347,748.0256224353273,917.5577069398402,918.0222636158367,621.5409544600358
1533223254.0839999,973.0690539677388,723.5016331686462,897.0399240028754,920.0476301057845,646.1548156233473
1533223254.0879998,993.8618920645218,729.6294912137769,904.836412587549,920.0476301057845,833.8465347091721
1533223254.092,1006.3341883548101,748.0256224353273,925.3541955245137,913.9673802947732,643.0796583658725
1533223254.096,975.1470603144991,778.6774697471393,967.2108424965596,915.9968971258888,439.9995498891602
1533223254.1,998.0179047580423,846.1215795020518,1016.4538577094911,918.0222636158367,578.4635466483621
1533223254.1039999,993.8618920645218,852.2619946333406,1076.3658847346928,942.3391125187137,966.1539154016676
1533223254.1079998,993.8618920645218,846.1215795020518,1003.322443013412,956.524978630684,956.9221420774866
1533223254.111,1014.6547301613049,821.5975902353706,977.059613621254,968.6854782527065,793.8442841549731
1533223254.115,993.8618920645218,809.341874145109,1059.5408657129008,958.5503451206318,923.076507589994
1533223254.119,975.1470603144991,827.7380053666594,1050.1030553425348,924.102513426848,701.5391540166767
1533223254.123,1004.2561820080499,846.1215795020518,1068.5685557394788,962.6052284416953,753.8483351525313
1533223254.127,1008.4164529112973,870.6455687687328,1007.0152069285846,952.4742456507885,769.2304229916617
1533223254.131,1004.2561820080499,870.6455687687328,973.3660092955408,926.1278799167957,519.997749445801
1533223254.135,998.0179047580423,852.2619946333406,1066.5171136099984,928.1532464067435,556.9248427425254
1533223254.139,1002.1781756612896,858.3898526784714,1095.6524662297531,907.8871304837619,680.0004501108398
1533223254.143,1033.3653037016006,889.0416999902832,1098.114869113562,918.0222636158367,716.921241855807
1533223254.147,1025.0490201048328,870.6455687687328,1039.8441638740526,922.0729965957322,876.9239425208458
1533223254.151,958.5144931209634,846.1215795020518,981.5734586345429,899.7815141828029,692.3073806924955
1533223254.154,939.7996613709406,772.5496117020084,1059.5408657129008,899.7815141828029,723.0778579225134
1533223254.158,925.2493587338921,772.5496117020084,1106.3214780420235,938.2883795388182,1107.6930694183443
1533223254.1620002,900.2962497338617,797.0736009686894,1101.8076330287345,944.3644790086615,1036.9266431858846
1533223254.1660001,881.5856761935659,748.0256224353273,1024.6604666379526,922.0729965957322,1018.4630965375223
1533223254.17,904.4565206371092,760.2813385255889,964.7484396127509,918.0222636158367,978.4608459833233
1533223254.174,908.6125333306295,797.0736009686894,1032.0468348788384,909.9166473148777,984.6174620500299
1533223254.178,896.1402370403413,778.6774697471393,1020.9677027227801,924.102513426848,864.61701193919
1533223254.1820002,929.4053714274125,803.2014590138202,1044.7681292311295,942.3391125187137,843.0783080333532
1533223254.186,912.772804233877,846.1215795020518,1047.2305321149381,940.313746028766,1138.4635466483621
1533223254.19,883.6636825403261,809.341874145109,878.5735831953909,946.3939958397772,1132.3069305816557
1533223254.1929998,894.0579724838541,754.153480480458,923.3027533950335,944.3644790086615,960.0036008867183
1533223254.197,908.6125333306295,766.4217536568776,1053.3856989139194,932.208129727807,812.3078308033354
1533223254.201,898.2182433871016,797.0736009686894,1018.5052998389714,922.0729965957322,538.4612960941632
1533223254.205,881.5856761935659,760.2813385255889,997.1664358038902,889.6505313918962,766.1552657341871
1533223254.2089999,891.9799661370939,772.5496117020084,975.8284121793496,873.439298789978,1196.9230422991661
1533223254.2129998,858.7105735402957,790.9457429235589,962.2868771394826,881.5449150909371,1086.1543655125074
1533223254.217,844.1602709032472,748.0256224353273,972.545768607965,885.5956480708327,984.6174620500299
1533223254.221,839.9999999999999,741.8977643901965,942.1792145463058,889.6505313918962,901.5378036841572
1533223254.225,875.3473989435583,735.7573492589077,902.7849704580688,865.3295321478511,809.2326735458606
1533223254.2289999,904.4565206371092,754.153480480458,796.91257179132,841.012683244974,916.9261930750447
1533223254.2329998,856.6325671935355,797.0736009686894,656.5707348039517,826.8268171330037,639.9981995566408
1533223254.236,852.476554500015,778.6774697471393,856.004358128946,834.9324334339627,483.0769577008338
1533223254.24,889.9019597903338,698.977643901965,1030.405513093146,857.223915846892,747.6917190858248
1533223254.244,914.8508105806371,680.5815126804147,1027.5329898655493,879.5153982598214,889.2308731025015
1533223254.248,914.8508105806371,692.8372287706762,890.8847572038941,897.7561476928552,889.2308731025015
1533223254.252,908.6125333306295,741.8977643901965,832.2030912100561,885.5956480708327,1021.538253794997
1533223254.256,894.0579724838541,766.4217536568776,912.6337415827632,869.3844154689145,984.6174620500299
1533223254.26,904.4565206371092,717.3612180373573,868.3146917269086,873.439298789978,704.6143112741513
1533223254.264,935.6436486774202,705.1055019470958,869.545893168813,895.7307812029073,1015.3879392800477
1533223254.268,916.9288169273974,711.2333599922266,728.3829750833282,877.4900317698737,1175.3843383933292
1533223254.272,881.5856761935659,723.5016331686462,643.4393201078727,867.3590489789668,870.7673264541394
1533223254.275,912.772804233877,797.0736009686894,711.9689168158645,877.4900317698737,726.1530151799881
1533223254.279,927.3273650806524,772.5496117020084,800.1952153627046,891.6758978818439,1132.3069305816557
1533223254.283,931.4833777741728,766.4217536568776,833.845253406289,911.9420138048254,1313.8483351525313
1533223254.2870002,954.354222217716,815.4697321902398,695.9649788921888,893.7012643717917,929.2331236567005
1533223254.2910001,975.1470603144991,797.0736009686894,657.8019362458562,883.5702815808849,769.2304229916617
1533223254.295,927.3273650806524,809.341874145109,744.7970333507918,875.4646652799258,827.6962201942229
1533223254.299,941.8819259274278,815.4697321902398,752.594362346006,867.3590489789668,876.9239425208458
1533223254.303,983.4633439112669,821.5975902353706,762.4431334707004,887.6251649019483,1018.4630965375223
1533223254.3070002,937.7216550241804,846.1215795020518,662.725901602933,891.6758978818439,1021.538253794997
1533223254.311,929.4053714274125,846.1215795020518,600.3514716939225,875.4646652799258,803.0760574791542
1533223254.315,941.8819259274278,839.993721456921,680.3711613123011,867.3590489789668,661.5369034624777
1533223254.3179998,948.1202031774354,852.2619946333406,701.7100253473822,891.6758978818439,843.0783080333532
1533223254.322,948.1202031774354,870.6455687687328,709.9174746863843,889.6505313918962,1012.3064804708159
1533223254.326,989.7016211612745,839.993721456921,587.2200569978435,901.8110310139186,676.9252928533651
1533223254.33,939.7996613709406,852.2619946333406,511.3040920489659,895.7307812029073,452.3064804708159
1533223254.3339999,904.4565206371092,876.7859839000216,606.5074789034443,879.5153982598214,563.0751572574746
1533223254.3379998,904.4565206371092,870.6455687687328,599.1211106625586,909.9166473148777,418.4608459833234
1533223254.342,891.9799661370939,839.993721456921,647.9531651211616,915.9968971258888,673.8438340441334
1533223254.346,929.4053714274125,809.341874145109,601.1725527920389,903.8363975038664,846.1534652908279
1533223254.35,896.1402370403413,809.341874145109,491.1972698663297,891.6758978818439,544.6179121608697
1533223254.3539999,902.374256080622,864.5177107236021,576.9611655293611,891.6758978818439,612.3091811358547
1533223254.357,927.3273650806524,870.6455687687328,631.9492271974859,911.9420138048254,809.2326735458606
1533223254.361,906.5345269838693,827.7380053666594,596.6587077787499,897.7561476928552,639.9981995566408
1533223254.365,896.1402370403413,815.4697321902398,588.0411380959599,905.8617639938142,753.8483351525313
1533223254.369,921.0890878306448,809.341874145109,468.6272043893442,918.0222636158367,932.3082809141752
1533223254.373,946.0379386209482,833.8658634117902,498.9937584510033,897.7561476928552,664.6183622717094
1533223254.377,956.4364867742032,821.5975902353706,682.4234438523218,891.6758978818439,630.7727277842168
1533223254.381,985.545608467754,772.5496117020084,686.5271685218229,924.102513426848,818.4644468700418
1533223254.385,964.752770370971,766.4217536568776,686.1162077674944,952.4742456507885,923.076507589994
1533223254.389,916.9288169273974,784.817884878428,519.511541387968,897.7561476928552,855.3852386150089
1533223254.393,923.167094177405,797.0736009686894,436.2092081982048,863.3041656579034,676.9252928533651
1533223254.397,912.772804233877,748.0256224353273,734.949102636638,897.7561476928552,676.9252928533651
1533223254.4,941.8819259274278,705.1055019470958,844.5142652185592,903.8363975038664,763.0801084767124
1533223254.404,964.752770370971,705.1055019470958,766.5460177296609,913.9673802947732,720.0027006650388
1533223254.408,941.8819259274278,754.153480480458,532.2328357402591,915.9968971258888,763.0801084767124
1533223254.4120002,929.4053714274125,790.9457429235589,536.3365604097602,899.7815141828029,713.8460845983324
1533223254.4160001,950.1982095241956,778.6774697471393,842.8729434328669,891.6758978818439,858.4603958724836
1533223254.42,960.5924994677237,790.9457429235589,827.2791258529792,915.9968971258888,1135.3883893908876
1533223254.424,964.752770370971,766.4217536568776,789.5262035504344,926.1278799167957,1200.004501108398
1533223254.428,989.7016211612745,741.8977643901965,714.4313196996733,911.9420138048254,879.9990997783204
1533223254.4320002,970.9910476209786,717.3612180373573,733.7179011947336,897.7561476928552,873.8487852633712
1533223254.436,952.2762158709559,698.977643901965,815.7890329425925,897.7561476928552,1018.4630965375223
1533223254.439,921.0890878306448,711.2333599922266,810.8650675855155,901.8110310139186,944.6152114958309
1533223254.4429998,912.772804233877,705.1055019470958,829.3305679824595,911.9420138048254,1070.7722776733772
1533223254.447,887.8196952338466,735.7573492589077,762.032172716372,907.8871304837619,907.6944197508636
1533223254.451,889.9019597903338,729.6294912137769,761.622052372584,897.7561476928552,664.6183622717094
1533223254.455,902.374256080622,717.3612180373573,798.5538935770123,899.7815141828029,833.8465347091721
1533223254.4589999,889.9019597903338,717.3612180373573,799.3749746751288,899.7815141828029,596.9207917449672
1533223254.4629998,896.1402370403413,668.3132395039951,962.2868771394826,907.8871304837619,809.2326735458606
1533223254.467,891.9799661370939,625.3931190157637,913.864102614127,928.1532464067435,1224.6183622717094
1533223254.471,891.9799661370939,625.3931190157637,826.8690055091912,924.102513426848,796.9257429642049
1533223254.475,898.2182433871016,643.789250237314,962.2868771394826,911.9420138048254,938.4648969808816
1533223254.478,914.8508105806371,649.9171082824447,918.377947627416,915.9968971258888,818.4644468700418
1533223254.482,921.0890878306448,637.6613921921834,992.6525907906012,928.1532464067435,864.61701193919
1533223254.486,910.6947978871167,643.789250237314,935.613086992996,936.2588627077025,1160.002250554199
1533223254.49,931.4833777741728,705.1055019470958,846.1555870042516,928.1532464067435,898.4626464266826
1533223254.494,939.7996613709406,729.6294912137769,982.3936993221189,922.0729965957322,720.0027006650388
1533223254.498,923.167094177405,711.2333599922266,1011.9400126962021,903.8363975038664,781.5373535733174
1533223254.502,921.0890878306448,748.0256224353273,963.5172381708464,922.0729965957322,744.6165618283502
1533223254.506,941.8819259274278,772.5496117020084,918.7889083817445,915.9968971258888,695.3825379499701
1533223254.51,952.2762158709559,760.2813385255889,881.8562267667755,889.6505313918962,907.6944197508636
1533223254.514,912.772804233877,784.817884878428,1054.2067800120358,889.6505313918962,836.9216919666468
1533223254.518,921.0890878306448,790.9457429235589,1185.9310473166142,901.8110310139186,692.3073806924955
1533223254.5210001,877.4254052903185,790.9457429235589,1167.4647065091297,903.8363975038664,827.6962201942229
1533223254.525,910.6947978871167,821.5975902353706,1096.4735473278697,893.7012643717917,960.0036008867183
1533223254.529,952.2762158709559,778.6774697471393,966.8007221527716,893.7012643717917,938.4648969808816
1533223254.533,891.9799661370939,723.5016331686462,1054.6169003558239,893.7012643717917,1049.2335737675403
1533223254.5370002,877.4254052903185,741.8977643901965,1126.8392609789882,913.9673802947732,796.9257429642049
1533223254.5410001,858.7105735402957,760.2813385255889,1120.273973836219,907.8871304837619,486.15211495830846
1533223254.545,873.2651343870712,760.2813385255889,1104.6801562563312,897.7561476928552,676.9252928533651
1533223254.549,929.4053714274125,784.817884878428,989.3699472192166,913.9673802947732,698.4639967592019
1533223254.553,894.0579724838541,784.817884878428,1023.0191448522603,907.8871304837619,581.5387039058368
1533223254.5570002,864.9488507903033,778.6774697471393,1170.3372297367264,918.0222636158367,870.7673264541394
1533223254.56,902.374256080622,778.6774697471393,1142.022958215088,938.2883795388182,830.7713774516975
1533223254.564,894.0579724838541,797.0736009686894,1058.7206250253248,930.1827632378591,501.540504349196
1533223254.5679998,916.9288169273974,784.817884878428,1034.509237762647,913.9673802947732,923.076507589994
1533223254.572,933.56564233066,748.0256224353273,1053.7958192577073,918.0222636158367,836.9216919666468
1533223254.576,931.4833777741728,754.153480480458,1096.0625865735412,954.4996121407362,584.6138611633114
1533223254.58,952.2762158709559,821.5975902353706,1111.6564041534289,952.4742456507885,716.921241855807
1533223254.5839999,931.4833777741728,858.3898526784714,1107.14255914014,938.2883795388182,852.3100813575343
1533223254.5879998,931.4833777741728,821.5975902353706,970.0833657241562,932.208129727807,726.1530151799881
1533223254.592,912.772804233877,821.5975902353706,968.8521642822519,920.0476301057845,600.002250554199
1533223254.596,937.7216550241804,833.8658634117902,1062.8235092842854,926.1278799167957,781.5373535733174
1533223254.6,979.3073312177464,827.7380053666594,1071.0309586232875,946.3939958397772,953.8469848200119
1533223254.603,908.6125333306295,821.5975902353706,1078.4173268641732,948.419362329725,886.1557158450269
1533223254.607,875.3473989435583,803.2014590138202,989.3699472192166,926.1278799167957,796.9257429642049
1533223254.611,914.8508105806371,815.4697321902398,1037.7918813340316,907.8871304837619,886.1557158450269
1533223254.615,927.3273650806524,821.5975902353706,1145.3056017864726,924.102513426848,784.6188123825492
1533223254.619,954.354222217716,815.4697321902398,1122.3254159656992,946.3939958397772,704.6143112741513
1533223254.623,919.0110814838846,821.5975902353706,1123.9667377513915,950.4447288196727,975.3856887258487
1533223254.627,902.374256080622,821.5975902353706,978.7009354069463,930.1827632378591,1015.3879392800477
1533223254.631,962.6747640242108,846.1215795020518,913.864102614127,911.9420138048254,683.0756073683144
1533223254.635,943.959932274188,833.8658634117902,1039.4332031197239,911.9420138048254,538.4612960941632
1533223254.639,962.6747640242108,772.5496117020084,1059.5408657129008,934.2334962177547,680.0004501108398
1533223254.6420002,927.3273650806524,778.6774697471393,1012.7602533837779,942.3391125187137,861.5418546817153
1533223254.6460001,858.7105735402957,827.7380053666594,908.5300169132621,915.9968971258888,827.6962201942229
1533223254.65,889.9019597903338,815.4697321902398,918.7889083817445,897.7561476928552,904.619262493389
1533223254.654,919.0110814838846,784.817884878428,1011.5290519418736,924.102513426848,793.8442841549731
1533223254.658,902.374256080622,821.5975902353706,1014.8125359237988,942.3391125187137,704.6143112741513
1533223254.6620002,896.1402370403413,870.6455687687328,1039.4332031197239,930.1827632378591,846.1534652908279
1533223254.6660001,887.8196952338466,852.2619946333406,977.8798543088299,942.3391125187137,864.61701193919
1533223254.67,862.8708444435431,846.1215795020518,915.5054243998193,946.3939958397772,759.9986496674807
1533223254.674,931.4833777741728,815.4697321902398,984.8561022059276,964.630594931643,553.8433839332936
1533223254.678,956.4364867742032,790.9457429235589,1007.0152069285846,926.1278799167957,544.6179121608697
1533223254.6820002,929.4053714274125,809.341874145109,1031.2265941912624,873.439298789978,809.2326735458606
1533223254.685,925.2493587338921,846.1215795020518,999.218718343911,887.6251649019483,932.3082809141752
1533223254.689,910.6947978871167,833.8658634117902,833.4342926519605,887.6251649019483,1015.3879392800477
1533223254.6929998,937.7216550241804,846.1215795020518,865.032048155524,907.8871304837619,683.0756073683144
1533223254.697,989.7016211612745,839.993721456921,1004.142683700988,911.9420138048254,409.2290726591424
1533223254.701,935.6436486774202,846.1215795020518,986.4974239916199,871.4097819588624,532.3046800274568
1533223254.705,891.9799661370939,864.5177107236021,966.8007221527716,891.6758978818439,584.6138611633114
1533223254.7089999,891.9799661370939,858.3898526784714,817.4303547282848,911.9420138048254,846.1534652908279
1533223254.7129998,906.5345269838693,882.9138419451524,785.8334396352618,905.8617639938142,790.7691268974985
1533223254.717,937.7216550241804,889.0416999902832,1065.285912168094,901.8110310139186,818.4644468700418
1533223254.721,998.0179047580423,889.0416999902832,1098.935109801138,920.0476301057845,987.6926193075045
1533223254.724,989.7016211612745,870.6455687687328,953.2583467023641,936.2588627077025,944.6152114958309
1533223254.728,970.9910476209786,895.1821151215722,852.7208741470208,934.2334962177547,975.3856887258487
1533223254.732,975.1470603144991,895.1821151215722,833.4342926519605,911.9420138048254,784.6188123825492
1533223254.736,948.1202031774354,901.3099731667028,797.322692135108,930.1827632378591,744.6165618283502
1533223254.74,995.9398984112821,889.0416999902832,766.135897385873,952.4742456507885,796.9257429642049
1533223254.744,939.7996613709406,882.9138419451524,832.6140519643847,942.3391125187137,944.6152114958309
1533223254.748,889.9019597903338,925.8339624333839,817.0202343844968,926.1278799167957,1129.2317733241812
1533223254.752,935.6436486774202,938.1022356098035,796.5024514475322,907.8871304837619,966.1539154016676
1533223254.756,933.56564233066,901.3099731667028,820.3028779558814,915.9968971258888,833.8465347091721
1533223254.76,935.6436486774202,895.1821151215722,755.4668855736027,932.208129727807,723.0778579225134
1533223254.764,952.2762158709559,956.4858097451958,780.4985135238564,960.5798619517475,735.3847885041691
1533223254.7670002,962.6747640242108,962.6262248764846,706.6339907044592,944.3644790086615,836.9216919666468
1533223254.7710001,923.167094177405,913.5656892569643,687.7575295531867,922.0729965957322,892.3060303599761
1533223254.775,921.0890878306448,870.6455687687328,739.0528273061391,903.8363975038664,686.1570661775462
1533223254.779,960.5924994677237,876.7859839000216,730.0242968690205,909.9166473148777,686.1570661775462
1533223254.783,948.1202031774354,901.3099731667028,700.4788239054778,926.1278799167957,1055.3838882824896
1533223254.7870002,914.8508105806371,882.9138419451524,558.4956651324172,899.7815141828029,907.6944197508636
1533223254.7910001,902.374256080622,895.1821151215722,604.0450760196356,895.7307812029073,738.4599457616438
1533223254.795,956.4364867742032,876.7859839000216,783.3710367514531,911.9420138048254,1110.7682266758188
1533223254.799,960.5924994677237,882.9138419451524,744.7970333507918,928.1532464067435,1070.7722776733772
1533223254.803,902.374256080622,925.8339624333839,672.9847930714154,926.1278799167957,655.3865889475284
1533223254.806,921.0890878306448,956.4858097451958,569.5747972884755,903.8363975038664,809.2326735458606
1533223254.81,891.9799661370939,907.4378312118336,571.2169594847082,891.6758978818439,1024.6197126042289
1533223254.814,929.4053714274125,870.6455687687328,607.7386803453487,911.9420138048254,824.6147613849911
1533223254.8179998,975.1470603144991,895.1821151215722,583.5272930826709,942.3391125187137,772.3055802491364
1533223254.822,937.7216550241804,876.7859839000216,702.5311064454986,958.5503451206318,941.5400542383562
1533223254.826,925.2493587338921,852.2619946333406,569.9857580428039,970.7108447426543,815.38298806081
1533223254.83,904.4565206371092,858.3898526784714,433.74680531439617,958.5503451206318,716.921241855807
1533223254.8339999,919.0110814838846,839.993721456921,510.48385136139007,918.0222636158367,553.8433839332936
1533223254.8379998,927.3273650806524,833.8658634117902,586.8099366540555,920.0476301057845,766.1552657341871
1533223254.842,912.772804233877,815.4697321902398,635.2318707688706,926.1278799167957,1132.3069305816557
1533223254.846,921.0890878306448,803.2014590138202,527.3080299726416,938.2883795388182,963.078758144193
1533223254.849,889.9019597903338,833.8658634117902,443.1854560953025,936.2588627077025,772.3055802491364
1533223254.853,883.6636825403261,852.2619946333406,491.6073902101176,926.1278799167957,507.6908188641453
1533223254.857,898.2182433871016,858.3898526784714,540.0293243249328,934.2334962177547,643.0796583658725
1533223254.861,900.2962497338617,846.1215795020518,568.7545566008995,942.3391125187137,1058.4653470917212
1533223254.865,910.6947978871167,815.4697321902398,512.9462542451988,946.3939958397772,1129.2317733241812
1533223254.869,879.5034116370787,821.5975902353706,290.5324450994311,905.8617639938142,809.2326735458606
1533223254.873,864.9488507903033,827.7380053666594,346.3407474551318,883.5702815808849,658.461746205003
1533223254.877,898.2182433871016,803.2014590138202,522.3840646155647,895.7307812029073,732.3096312466945
1533223254.881,877.4254052903185,827.7380053666594,468.21708404555625,913.9673802947732,643.0796583658725
1533223254.885,829.6057100564718,833.8658634117902,444.8267778809949,928.1532464067435,624.6161117175104
1533223254.8879998,827.5234454999846,827.7380053666594,303.6638597955101,903.8363975038664,944.6152114958309
1533223254.8920002,839.9999999999999,864.5177107236021,217.0788830343623,891.6758978818439,818.4644468700418
1533223254.8960001,856.6325671935355,864.5177107236021,488.73486698252094,871.4097819588624,707.6957700833831
1533223254.9,846.2382772500074,870.6455687687328,599.9413513501346,891.6758978818439,966.1539154016676
1533223254.904,844.1602709032472,839.993721456921,471.4997276169409,918.0222636158367,1076.9225921883265
1533223254.908,896.1402370403413,827.7380053666594,311.05022803639577,875.4646652799258,855.3852386150089
1533223254.9120002,854.5545608467753,803.2014590138202,288.0700422156223,857.223915846892,516.9225921883263
1533223254.9160001,839.9999999999999,772.5496117020084,350.03435178084493,857.223915846892,458.46309653752235
1533223254.92,898.2182433871016,815.4697321902398,344.6994256694395,891.6758978818439,572.3069305816557
1533223254.924,860.7928380967828,852.2619946333406,308.1777048087992,918.0222636158367,956.9221420774866
1533223254.928,823.3674328064642,839.993721456921,204.76770902585903,891.6758978818439,996.9243926316856
1533223254.931,839.9999999999999,858.3898526784714,221.59272804765126,883.5702815808849,538.4612960941632
1533223254.935,875.3473989435583,895.1821151215722,402.1498902213731,891.6758978818439,750.7668763432995
1533223254.939,891.9799661370939,870.6455687687328,416.101545605028,905.8617639938142,1043.0769577008339
1533223254.9429998,912.772804233877,858.3898526784714,368.5006925883294,903.8363975038664,1009.2313232133413
1533223254.947,904.4565206371092,870.6455687687328,283.96715795666194,889.6505313918962,1298.466247313401
1533223254.951,885.7416888870863,858.3898526784714,242.93075167219186,893.7012643717917,1015.3879392800477
1533223254.955,900.2962497338617,882.9138419451524,336.49281674097796,893.7012643717917,784.6188123825492
1533223254.9589999,885.7416888870863,876.7859839000216,340.18558065615053,883.5702815808849,803.0760574791542
1533223254.9629998,908.6125333306295,870.6455687687328,368.08973183400093,913.9673802947732,895.3874891692079
1533223254.967,904.4565206371092,876.7859839000216,284.37727830044963,899.7815141828029,1193.8478850416916
1533223254.97,881.5856761935659,876.7859839000216,158.39805745106486,893.7012643717917,864.61701193919
1533223254.974,921.0890878306448,895.1821151215722,262.6282939215807,915.9968971258888,480.0018004433592
1533223254.978,923.167094177405,876.7859839000216,380.811026186292,895.7307812029073,470.7700271191781
1533223254.982,906.5345269838693,864.5177107236021,464.1133593760552,899.7815141828029,1003.081008698392
1533223254.986,941.8819259274278,889.0416999902832,333.2093327590528,909.9166473148777,1350.7691268974986
1533223254.99,929.4053714274125,876.7859839000216,276.16982896144765,897.7561476928552,1153.8456344874926
1533223254.994,923.167094177405,846.1215795020518,366.85853039209655,897.7561476928552,636.9230422991661
1533223254.998,935.6436486774202,846.1215795020518,380.811026186292,907.8871304837619,646.1548156233473
1533223255.002,921.0890878306448,833.8658634117902,439.902812523918,918.0222636158367,993.8492353742109
1533223255.006,923.167094177405,778.6774697471393,338.54425887045824,913.9673802947732,1052.3087310250148
1533223255.01,910.6947978871167,784.817884878428,254.01072423879074,895.7307812029073,833.8465347091721
1533223255.0129998,925.2493587338921,821.5975902353706,357.83084036551855,895.7307812029073,443.07470714663486
1533223255.0170002,950.1982095241956,790.9457429235589,354.138076450346,920.0476301057845,470.7700271191781
1533223255.0210001,958.5144931209634,803.2014590138202,361.1143243474437,930.1827632378591,606.1525650691483
1533223255.025,966.8307767177313,815.4697321902398,386.96619298527344,897.7561476928552,858.4603958724836
1533223255.029,925.2493587338921,797.0736009686894,366.85853039209655,859.2534326780078,960.0036008867183
1533223255.033,910.6947978871167,772.5496117020084,423.48791384591374,861.2787991679555,861.5418546817153
1533223255.0370002,952.2762158709559,754.153480480458,455.0856693494772,875.4646652799258,738.4599457616438
1533223255.0410001,962.6747640242108,760.2813385255889,460.00963470655415,901.8110310139186,778.4621963158428
1533223255.045,993.8618920645218,784.817884878428,482.9898205273276,922.0729965957322,1018.4630965375223
1533223255.049,1012.5724656048177,760.2813385255889,343.87918498186366,909.9166473148777,1073.8474349308517
1533223255.052,966.8307767177313,748.0256224353273,343.87918498186366,901.8110310139186,809.2326735458606
1533223255.056,941.8819259274278,803.2014590138202,627.8455025279849,907.8871304837619,950.7718275625373
1533223255.06,933.56564233066,790.9457429235589,636.8731925545629,924.102513426848,1116.9248427425252
1533223255.064,943.959932274188,754.153480480458,462.4720375903629,946.3939958397772,720.0027006650388
1533223255.0679998,912.772804233877,741.8977643901965,303.25373945172214,922.0729965957322,704.6143112741513
1533223255.072,933.56564233066,797.0736009686894,281.91487541664105,905.8617639938142,673.8438340441334
1533223255.076,981.3853375645067,839.993721456921,607.7386803453487,932.208129727807,824.6147613849911
1533223255.08,1014.6547301613049,833.8658634117902,759.5706102431037,948.419362329725,1123.0751572574748
1533223255.0839999,998.0179047580423,754.153480480458,669.2920291562428,938.2883795388182,1230.7686767866587
1533223255.0879998,929.4053714274125,729.6294912137769,562.5993898019183,924.102513426848,1218.461746205003
1533223255.092,952.2762158709559,778.6774697471393,554.3919404629162,918.0222636158367,1021.538253794997
1533223255.095,989.7016211612745,790.9457429235589,608.5589210329246,903.8363975038664,990.7677765649792
1533223255.099,950.1982095241956,784.817884878428,594.1963048949411,897.7561476928552,1089.2295227699822
1533223255.103,941.8819259274278,748.0256224353273,585.9896959664796,901.8110310139186,686.1570661775462
1533223255.107,958.5144931209634,772.5496117020084,568.7545566008995,879.5153982598214,652.3051301382966
1533223255.111,952.2762158709559,803.2014590138202,541.6706461106251,871.4097819588624,784.6188123825492
1533223255.115,981.3853375645067,766.4217536568776,595.8376266806334,869.3844154689145,750.7668763432995
1533223255.119,1012.5724656048177,735.7573492589077,729.2040561814447,887.6251649019483,910.7695770083383
1533223255.123,1043.7638518548558,760.2813385255889,780.0883931800685,922.0729965957322,756.923492410006
1533223255.127,1066.634696298399,766.4217536568776,659.8533783753363,907.8871304837619,833.8465347091721
1533223255.131,1041.6815872983686,760.2813385255889,651.2358086925464,877.4900317698737,876.9239425208458
1533223255.1339998,1031.2872973548406,772.5496117020084,782.9609164076652,895.7307812029073,775.3870390583681
1533223255.1379998,998.0179047580423,754.153480480458,814.9687922550165,911.9420138048254,1033.8451843766527
1533223255.1420002,968.9087830644914,711.2333599922266,823.5855215272661,920.0476301057845,1027.6948698617034
1533223255.1460001,1008.4164529112973,790.9457429235589,685.7060874237064,909.9166473148777,960.0036008867183
1533223255.15,1000.1001693145295,858.3898526784714,592.144862765461,893.7012643717917,793.8442841549731
1533223255.154,970.9910476209786,803.2014590138202,787.0638006666256,901.8110310139186,658.461746205003
1533223255.158,985.545608467754,784.817884878428,784.191277439029,915.9968971258888,633.8478850416915
1533223255.1620002,981.3853375645067,803.2014590138202,835.0756144376528,901.8110310139186,618.459495650804
1533223255.1660001,989.7016211612745,790.9457429235589,871.5973352982932,885.5956480708327,806.157516288386
1533223255.17,985.545608467754,784.817884878428,691.8612542226878,869.3844154689145,667.6935195291841
1533223255.1729999,985.545608467754,821.5975902353706,854.7731566870416,885.5956480708327,486.15211495830846
1533223255.177,975.1470603144991,821.5975902353706,1003.322443013412,905.8617639938142,553.8433839332936
1533223255.181,970.9910476209786,772.5496117020084,1002.0912415715077,909.9166473148777,929.2331236567005
1533223255.185,954.354222217716,754.153480480458,936.8442884349005,899.7815141828029,1283.0778579225134
1533223255.189,937.7216550241804,797.0736009686894,818.6615561701891,871.4097819588624,1033.8451843766527
1533223255.1929998,929.4053714274125,797.0736009686894,876.1111803115822,881.5449150909371,720.0027006650388
1533223255.197,943.959932274188,790.9457429235589,941.7682537919774,924.102513426848,901.5378036841572
1533223255.201,925.2493587338921,772.5496117020084,913.864102614127,936.2588627077025,772.3055802491364
1533223255.205,904.4565206371092,790.9457429235589,824.8167229691704,932.208129727807,830.7713774516975
1533223255.2089999,935.6436486774202,809.341874145109,808.8127850454947,926.1278799167957,966.1539154016676
1533223255.2129998,898.2182433871016,760.2813385255889,906.8886951275698,909.9166473148777,815.38298806081
1533223255.216,923.167094177405,778.6774697471393,1002.9114822590835,907.8871304837619,990.7677765649792
1533223255.22,966.8307767177313,827.7380053666594,1002.0912415715077,932.208129727807,956.9221420774866
1533223255.224,946.0379386209482,803.2014590138202,926.1752766226301,928.1532464067435,892.3060303599761
1533223255.228,923.167094177405,790.9457429235589,828.5103272948835,909.9166473148777,935.3834381716498
1533223255.232,921.0890878306448,797.0736009686894,875.7010599677943,911.9420138048254,852.3100813575343
1533223255.236,937.7216550241804,790.9457429235589,929.4579201940148,913.9673802947732,683.0756073683144
1533223255.24,946.0379386209482,790.9457429235589,931.9203230778235,915.9968971258888,806.157516288386
1533223255.244,937.7216550241804,809.341874145109,953.6693074566926,920.0476301057845,1252.3073806924956
1533223255.248,939.7996613709406,803.2014590138202,818.6615561701891,911.9420138048254,1178.4657972025611
1533223255.252,960.5924994677237,839.993721456921,754.6458044754863,903.8363975038664,870.7673264541394
1533223255.255,956.4364867742032,895.1821151215722,817.8413154826133,913.9673802947732,747.6917190858248
1533223255.2589998,995.9398984112821,907.4378312118336,896.6298036590874,924.102513426848,796.9257429642049
1533223255.2629998,958.5144931209634,852.2619946333406,972.545768607965,934.2334962177547,1049.2335737675403
1533223255.2670002,912.772804233877,852.2619946333406,821.5340793977858,928.1532464067435,1018.4630965375223
1533223255.2710001,929.4053714274125,852.2619946333406,807.1714632598024,903.8363975038664,996.9243926316856
1533223255.275,923.167094177405,833.8658634117902,905.246532931337,911.9420138048254,953.8469848200119
1533223255.279,906.5345269838693,833.8658634117902,856.4144784727339,934.2334962177547,750.7668763432995
1533223255.283,933.56564233066,827.7380053666594,877.3423817534866,936.2588627077025,1061.540504349196
1533223255.2870002,948.1202031774354,827.7380053666594,719.3552850567502,924.102513426848,956.9221420774866
1533223255.2910001,952.2762158709559,839.993721456921,672.9847930714154,918.0222636158367,510.77227767337706
1533223255.295,981.3853375645067,833.8658634117902,823.5855215272661,932.208129727807,627.6912689749851
1533223255.2979999,991.7796275080347,839.993721456921,734.949102636638,926.1278799167957,646.1548156233473
1533223255.302,987.6236148145142,846.1215795020518,739.8730679937149,901.8110310139186,689.2322234350208
1533223255.306,943.959932274188,827.7380053666594,706.2238703606712,897.7561476928552,867.6921691966646
1533223255.31,948.1202031774354,846.1215795020518,614.7140878319059,907.8871304837619,864.61701193919
1533223255.314,987.6236148145142,889.0416999902832,816.1991532863804,911.9420138048254,627.6912689749851
1533223255.3179998,968.9087830644914,852.2619946333406,920.8403505112248,907.8871304837619,744.6165618283502
1533223255.322,952.2762158709559,833.8658634117902,860.1080827984471,924.102513426848,1012.3064804708159
1533223255.326,943.959932274188,858.3898526784714,666.4195059286461,920.0476301057845,879.9990997783204
1533223255.33,966.8307767177313,846.1215795020518,624.9729793003883,887.6251649019483,720.0027006650388
1533223255.3339999,950.1982095241956,815.4697321902398,776.8049091981433,883.5702815808849,716.921241855807
1533223255.3370001,948.1202031774354,852.2619946333406,808.4026647017068,899.7815141828029,1083.0792082550329
1533223255.341,1004.2561820080499,864.5177107236021,765.3156566982971,924.102513426848,1181.540954460036
1533223255.345,921.0890878306448,790.9457429235589,638.5153547507957,930.1827632378591,1070.7722776733772
1533223255.349,875.3473989435583,790.9457429235589,405.84265413654566,901.8110310139186,793.8442841549731
1533223255.353,919.0110814838846,803.2014590138202,538.3880025392405,891.6758978818439,818.4644468700418
1533223255.357,964.752770370971,784.817884878428,864.2109670574075,895.7307812029073,1009.2313232133413
1533223255.361,973.0690539677388,754.153480480458,849.8483509194241,915.9968971258888,993.8492353742109
1533223255.365,950.1982095241956,778.6774697471393,714.0203589453448,934.2334962177547,1024.6197126042289
1533223255.369,968.9087830644914,790.9457429235589,579.0134480693819,932.208129727807,606.1525650691483
1533223255.373,987.6236148145142,797.0736009686894,633.5905489831783,926.1278799167957,436.9243926316856
1533223255.377,1020.8887492015855,827.7380053666594,698.8375021197855,909.9166473148777,843.0783080333532
1533223255.38,993.8618920645218,803.2014590138202,597.4797888768663,905.8617639938142,636.9230422991661
1533223255.3839998,1000.1001693145295,760.2813385255889,565.0609522751864,926.1278799167957,489.23357376754024
1533223255.3879998,1047.9198645483762,784.817884878428,571.2169594847082,915.9968971258888,732.3096312466945
1533223255.3920002,1047.9198645483762,821.5975902353706,510.48385136139007,891.6758978818439,698.4639967592019
1533223255.3960001,1022.9710137580727,821.5975902353706,553.5708593647997,903.8363975038664,689.2322234350208
1533223255.4,989.7016211612745,827.7380053666594,654.5192926744714,938.2883795388182,790.7691268974985
1533223255.404,979.3073312177464,846.1215795020518,648.7742462192781,950.4447288196727,1083.0792082550329
1533223255.408,927.3273650806524,803.2014590138202,518.2803399460637,942.3391125187137,1249.2322234350208
1533223255.4120002,952.2762158709559,772.5496117020084,459.59951436276623,930.1827632378591,661.5369034624777
1533223255.4160001,962.6747640242108,815.4697321902398,535.1053589678558,938.2883795388182,532.3046800274568
1533223255.419,935.6436486774202,833.8658634117902,558.4956651324172,940.313746028766,876.9239425208458
1533223255.4229999,954.354222217716,833.8658634117902,510.893971705178,926.1278799167957,753.8483351525313
1533223255.427,966.8307767177313,815.4697321902398,402.970130908949,920.0476301057845,803.0760574791542
1533223255.431,948.1202031774354,803.2014590138202,463.2931186884793,934.2334962177547,1153.8456344874926
1533223255.435,931.4833777741728,797.0736009686894,469.03732473313215,938.2883795388182,852.3100813575343
1533223255.439,954.354222217716,809.341874145109,376.297181173003,926.1278799167957,646.1548156233473
1533223255.4429998,991.7796275080347,827.7380053666594,428.4127196135311,928.1532464067435,800.0009002216796
1533223255.447,991.7796275080347,846.1215795020518,394.7635219804875,928.1532464067435,926.1516648474687
1533223255.451,977.2293248709863,803.2014590138202,398.0461655518721,942.3391125187137,929.2331236567005
1533223255.455,939.7996613709406,809.341874145109,529.7704328564504,930.1827632378591,778.4621963158428
1533223255.4589999,954.354222217716,858.3898526784714,532.642956084047,926.1278799167957,587.6953199725432
1533223255.4620001,991.7796275080347,870.6455687687328,504.32868456240874,928.1532464067435,587.6953199725432
1533223255.466,979.3073312177464,852.2619946333406,379.1697044005997,909.9166473148777,683.0756073683144
1533223255.47,954.354222217716,815.4697321902398,348.3930299951525,905.8617639938142,673.8438340441334
1533223255.474,966.8307767177313,827.7380053666594,487.91378588440455,901.8110310139186,658.461746205003
1533223255.478,995.9398984112821,809.341874145109,516.2288978165834,909.9166473148777,916.9261930750447
1533223255.482,1025.0490201048328,797.0736009686894,514.997696374679,940.313746028766,1101.542754903395
1533223255.486,1006.3341883548101,790.9457429235589,317.61635558970556,938.2883795388182,793.8442841549731
1533223255.49,1002.1781756612896,741.8977643901965,201.4850654544746,938.2883795388182,726.1530151799881
1533223255.494,1018.8107428548253,772.5496117020084,478.06585517025064,942.3391125187137,1252.3073806924956
1533223255.498,989.7016211612745,778.6774697471393,595.0173859930576,926.1278799167957,1344.618812382549
1533223255.5010002,968.9087830644914,784.817884878428,593.3760642073653,926.1278799167957,1181.540954460036
1533223255.505,956.4364867742032,803.2014590138202,468.6272043893442,926.1278799167957,796.9257429642049
1533223255.5089998,939.7996613709406,784.817884878428,175.6323564061043,901.8110310139186,452.3064804708159
1533223255.5129998,943.959932274188,772.5496117020084,359.06204180742293,891.6758978818439,547.6930694183443
1533223255.5170002,956.4364867742032,760.2813385255889,681.6023627542054,895.7307812029073,830.7713774516975
1533223255.5210001,987.6236148145142,729.6294912137769,659.0331376877605,907.8871304837619,1070.7722776733772
1533223255.525,956.4364867742032,717.3612180373573,526.4877892850658,909.9166473148777,879.9990997783204
1533223255.529,927.3273650806524,717.3612180373573,459.59951436276623,871.4097819588624,769.2304229916617
1533223255.533,929.4053714274125,748.0256224353273,484.6311423130199,863.3041656579034,738.4599457616438
1533223255.5370002,914.8508105806371,815.4697321902398,510.893971705178,885.5956480708327,683.0756073683144
1533223255.5410001,943.959932274188,821.5975902353706,622.1004560727915,887.6251649019483,729.2281724374627
1533223255.544,927.3273650806524,827.7380053666594,648.7742462192781,897.7561476928552,941.5400542383562
1533223255.5479999,908.6125333306295,809.341874145109,488.324746638733,897.7561476928552,960.0036008867183
1533223255.552,916.9288169273974,790.9457429235589,515.8187774727954,905.8617639938142,744.6165618283502
1533223255.556,916.9288169273974,790.9457429235589,699.658583217902,924.102513426848,913.8447342658129
1533223255.56,977.2293248709863,803.2014590138202,694.3236571064965,940.313746028766,1009.2313232133413
1533223255.564,958.5144931209634,797.0736009686894,660.2643391296648,930.1827632378591,1129.2317733241812
1533223255.5679998,927.3273650806524,827.7380053666594,552.3404983334359,899.7815141828029,1021.538253794997
1533223255.572,991.7796275080347,864.5177107236021,599.9413513501346,911.9420138048254,787.6939696400239
1533223255.576,964.752770370971,827.7380053666594,726.7416532976359,915.9968971258888,972.310531468374
1533223255.58,900.2962497338617,821.5975902353706,629.4868243136772,913.9673802947732,763.0801084767124
1533223255.583,906.5345269838693,809.341874145109,635.6428315231991,901.8110310139186,987.6926193075045
1533223255.5870001,860.7928380967828,815.4697321902398,634.8217504250827,885.5956480708327,883.0805585875522
1533223255.591,825.4454391532245,846.1215795020518,711.5587964720767,897.7561476928552,643.0796583658725
1533223255.595,827.5234454999846,821.5975902353706,797.322692135108,893.7012643717917,596.9207917449672
1533223255.599,844.1602709032472,839.993721456921,810.0439864873991,901.8110310139186,763.0801084767124
1533223255.603,864.9488507903033,815.4697321902398,817.8413154826133,897.7561476928552,975.3856887258487
1533223255.607,856.6325671935355,815.4697321902398,672.9847930714154,877.4900317698737,846.1534652908279
1533223255.611,856.6325671935355,827.7380053666594,698.8375021197855,867.3590489789668,692.3073806924955
1533223255.615,869.1091216935507,797.0736009686894,846.9758276918275,873.439298789978,655.3865889475284
1533223255.619,871.1871280403109,778.6774697471393,858.4659206022142,907.8871304837619,833.8465347091721
1533223255.623,869.1091216935507,797.0736009686894,830.5617694243638,924.102513426848,664.6183622717094
1533223255.6260002,883.6636825403261,766.4217536568776,744.7970333507918,913.9673802947732,895.3874891692079
1533223255.63,919.0110814838846,760.2813385255889,697.1961803340932,907.8871304837619,809.2326735458606
1533223255.6339998,881.5856761935659,772.5496117020084,833.845253406289,920.0476301057845,701.5391540166767
1533223255.6379998,831.683716403232,766.4217536568776,911.8126604846467,928.1532464067435,1043.0769577008339
1533223255.6420002,879.5034116370787,705.1055019470958,898.2711254447797,926.1278799167957,935.3834381716498
1533223255.6460001,891.9799661370939,711.2333599922266,806.7613429160144,918.0222636158367,781.5373535733174
1533223255.65,864.9488507903033,717.3612180373573,762.4431334707004,891.6758978818439,436.9243926316856
1533223255.654,887.8196952338466,735.7573492589077,910.5814590427424,875.4646652799258,538.4612960941632
1533223255.658,929.4053714274125,772.5496117020084,959.414353911886,907.8871304837619,775.3870390583681
1533223255.6620002,912.772804233877,766.4217536568776,969.6732453803683,915.9968971258888,772.3055802491364
1533223255.665,894.0579724838541,790.9457429235589,956.5418306842893,889.6505313918962,1144.6138611633114
1533223255.669,906.5345269838693,772.5496117020084,764.9046959439686,893.7012643717917,806.157516288386
1533223255.6729999,912.772804233877,741.8977643901965,875.2909396240063,905.8617639938142,593.8456344874926
1533223255.677,908.6125333306295,772.5496117020084,1053.3856989139194,907.8871304837619,892.3060303599761
1533223255.681,925.2493587338921,803.2014590138202,1007.4253272723726,913.9673802947732,901.5378036841572
1533223255.685,952.2762158709559,790.9457429235589,933.5616448635159,918.0222636158367,704.6143112741513
1533223255.689,898.2182433871016,766.4217536568776,784.6022381933575,889.6505313918962,840.0031507758786
1533223255.6929998,856.6325671935355,760.2813385255889,830.9727301786922,889.6505313918962,910.7695770083383
1533223255.697,875.3473989435583,741.8977643901965,1092.3698226583685,897.7561476928552,769.2304229916617
1533223255.701,898.2182433871016,723.5016331686462,1110.4252027115247,889.6505313918962,852.3100813575343
1533223255.705,910.6947978871167,717.3612180373573,976.6486528669255,897.7561476928552,944.6152114958309
1533223255.708,879.5034116370787,717.3612180373573,849.0281102318482,893.7012643717917,753.8483351525313
1533223255.7120001,881.5856761935659,754.153480480458,874.8808192802184,899.7815141828029,556.9248427425254
1533223255.716,935.6436486774202,790.9457429235589,928.6368390958984,895.7307812029073,827.6962201942229
1533223255.72,916.9288169273974,766.4217536568776,824.8167229691704,881.5449150909371,809.2326735458606
1533223255.724,902.374256080622,741.8977643901965,716.0726414853656,901.8110310139186,553.8433839332936
1533223255.728,960.5924994677237,754.153480480458,760.8009712744675,909.9166473148777,680.0004501108398
1533223255.732,962.6747640242108,754.153480480458,896.6298036590874,909.9166473148777,944.6152114958309
1533223255.736,952.2762158709559,790.9457429235589,901.9638893599523,950.4447288196727,855.3852386150089
1533223255.74,910.6947978871167,772.5496117020084,849.8483509194241,938.2883795388182,732.3096312466945
1533223255.744,894.0579724838541,748.0256224353273,835.4865751919813,899.7815141828029,873.8487852633712
1533223255.7470002,933.56564233066,778.6774697471393,693.0924556645922,881.5449150909371,578.4635466483621
1533223255.7510002,906.5345269838693,729.6294912137769,753.8255637879104,877.4900317698737,704.6143112741513
1533223255.755,877.4254052903185,692.8372287706762,865.442168499312,883.5702815808849,1058.4653470917212
1533223255.7589998,943.959932274188,698.977643901965,796.91257179132,895.7307812029073,803.0760574791542
1533223255.7629998,973.0690539677388,698.977643901965,797.322692135108,907.8871304837619,975.3856887258487
1533223255.7670002,973.0690539677388,741.8977643901965,681.1922424104175,903.8363975038664,1283.0778579225134
1533223255.7710001,966.8307767177313,748.0256224353273,628.2564632823135,885.5956480708327,1160.002250554199
1533223255.775,950.1982095241956,754.153480480458,729.6141765252326,877.4900317698737,987.6926193075045
1533223255.779,929.4053714274125,741.8977643901965,779.267312081952,883.5702815808849,1043.0769577008339
1533223255.783,941.8819259274278,748.0256224353273,791.5784860904552,903.8363975038664,781.5373535733174
1533223255.786,968.9087830644914,772.5496117020084,622.921537170908,907.8871304837619,766.1552657341871
1533223255.79,977.2293248709863,766.4217536568776,455.4957896932652,895.7307812029073,960.0036008867183
1533223255.794,985.545608467754,778.6774697471393,724.2792504138272,901.8110310139186,941.5400542383562
1533223255.7979999,985.545608467754,790.9457429235589,874.4698585258899,924.102513426848,920.0013503325193
1533223255.802,946.0379386209482,766.4217536568776,771.4708234972784,948.419362329725,753.8483351525313
1533223255.806,927.3273650806524,741.8977643901965,686.1162077674944,932.208129727807,981.5423047925551
1533223255.81,964.752770370971,790.9457429235589,635.6428315231991,924.102513426848,901.5378036841572
1533223255.814,968.9087830644914,790.9457429235589,633.1804286393904,940.313746028766,763.0801084767124
1533223255.8179998,950.1982095241956,741.8977643901965,660.6744594734528,932.208129727807,1033.8451843766527
1533223255.822,950.1982095241956,735.7573492589077,778.0361106400477,930.1827632378591,1089.2295227699822
1533223255.826,943.959932274188,748.0256224353273,674.2159945133197,932.208129727807,907.6944197508636
1533223255.829,962.6747640242108,772.5496117020084,603.2239949215192,903.8363975038664,981.5423047925551
1533223255.833,968.9087830644914,778.6774697471393,712.789997913981,909.9166473148777,993.8492353742109
1533223255.8370001,966.8307767177313,766.4217536568776,730.0242968690205,903.8363975038664,710.7709273408577
1533223255.841,973.0690539677388,784.817884878428,769.0084206134696,891.6758978818439,655.3865889475284
1533223255.845,975.1470603144991,760.2813385255889,700.0687035616899,901.8110310139186,787.6939696400239
1533223255.849,981.3853375645067,748.0256224353273,647.5430447773738,881.5449150909371,975.3856887258487
1533223255.853,977.2293248709863,803.2014590138202,785.0123585371454,865.3295321478511,947.6903687533055
1533223255.857,962.6747640242108,778.6774697471393,800.1952153627046,871.4097819588624,744.6165618283502
1533223255.861,977.2293248709863,760.2813385255889,737.8216258642346,891.6758978818439,769.2304229916617
1533223255.865,993.8618920645218,803.2014590138202,682.0124830979934,903.8363975038664,852.3100813575343
1533223255.8679998,985.545608467754,839.993721456921,689.398851338879,901.8110310139186,800.0009002216796
1533223255.8720002,977.2293248709863,815.4697321902398,837.9481376652494,893.7012643717917,590.770477230018
1533223255.8760002,979.3073312177464,815.4697321902398,908.1190561589336,901.8110310139186,630.7727277842168
1533223255.88,1018.8107428548253,839.993721456921,901.1436486723765,903.8363975038664,796.9257429642049
1533223255.8839998,973.0690539677388,790.9457429235589,881.8562267667755,873.439298789978,1036.9266431858846
1533223255.8879998,935.6436486774202,778.6774697471393,734.949102636638,873.439298789978,892.3060303599761
1533223255.8920002,956.4364867742032,815.4697321902398,806.3512225722266,893.7012643717917,747.6917190858248
1533223255.8960001,970.9910476209786,809.341874145109,936.4341680911125,887.6251649019483,904.619262493389
1533223255.9,985.545608467754,797.0736009686894,922.0715519531291,907.8871304837619,990.7677765649792
1533223255.904,993.8618920645218,839.993721456921,883.08742820868,934.2334962177547,1043.0769577008339
1533223255.908,970.9910476209786,858.3898526784714,682.4234438523218,911.9420138048254,366.1516648474687
1533223255.911,966.8307767177313,815.4697321902398,706.2238703606712,893.7012643717917,264.614761384991
1533223255.915,993.8618920645218,772.5496117020084,837.1278969776736,901.8110310139186,476.9203416341274
1533223255.919,985.545608467754,760.2813385255889,901.9638893599523,909.9166473148777,735.3847885041691
1533223255.9229999,948.1202031774354,815.4697321902398,940.9480131044015,899.7815141828029,1147.6953199725433
1533223255.927,946.0379386209482,827.7380053666594,869.545893168813,893.7012643717917,1101.542754903395
1533223255.931,989.7016211612745,748.0256224353273,856.8245988165219,875.4646652799258,787.6939696400239
1533223255.935,1020.8887492015855,772.5496117020084,911.8126604846467,883.5702815808849,584.6138611633114
1533223255.939,1031.2872973548406,772.5496117020084,945.8719784614784,899.7815141828029,889.2308731025015
1533223255.9429998,989.7016211612745,741.8977643901965,998.8085980001231,911.9420138048254,1323.0801084767124
1533223255.947,946.0379386209482,784.817884878428,806.3512225722266,909.9166473148777,864.61701193919
1533223255.95,979.3073312177464,778.6774697471393,738.6418665518106,903.8363975038664,861.5418546817153
1533223255.954,979.3073312177464,741.8977643901965,965.5695207108672,907.8871304837619,1187.6912689749852
1533223255.958,977.2293248709863,772.5496117020084,939.7168116624971,918.0222636158367,926.1516648474687
1533223255.9620001,975.1470603144991,797.0736009686894,916.7366258417237,950.4447288196727,1006.1561659558666
1533223255.966,973.0690539677388,839.993721456921,849.8483509194241,956.524978630684,990.7677765649792
1533223255.97,1008.4164529112973,821.5975902353706,818.6615561701891,922.0729965957322,907.6944197508636
1533223255.974,1020.8887492015855,809.341874145109,922.481672296917,928.1532464067435,1092.3109815792138
1533223255.978,991.7796275080347,821.5975902353706,848.6179898880603,944.3644790086615,704.6143112741513
1533223255.982,979.3073312177464,809.341874145109,862.5696452717152,924.102513426848,790.7691268974985
1533223255.986,964.752770370971,741.8977643901965,810.454106831187,899.7815141828029,870.7673264541394
1533223255.99,962.6747640242108,748.0256224353273,586.3998163102675,893.7012643717917,692.3073806924955
1533223255.9929998,941.8819259274278,748.0256224353273,714.4313196996733,873.439298789978,443.07470714663486
1533223255.9970002,943.959932274188,735.7573492589077,956.1308699299608,865.3295321478511,332.30603035997615
1533223256.0010002,943.959932274188,772.5496117020084,895.3986022171831,877.4900317698737,895.3874891692079
1533223256.005,925.2493587338921,772.5496117020084,717.30384292727,879.5153982598214,981.5423047925551
1533223256.0089998,921.0890878306448,723.5016331686462,691.8612542226878,865.3295321478511,618.459495650804
1533223256.0129998,925.2493587338921,723.5016331686462,823.9964822815946,855.1985493569443,513.8474349308517
1533223256.0170002,914.8508105806371,754.153480480458,835.4865751919813,867.3590489789668,818.4644468700418
1533223256.0210001,912.772804233877,741.8977643901965,796.91257179132,875.4646652799258,886.1557158450269
1533223256.025,941.8819259274278,717.3612180373573,699.2476224635734,873.439298789978,766.1552657341871
1533223256.029,960.5924994677237,748.0256224353273,611.4314442605213,863.3041656579034,796.9257429642049
1533223256.032,970.9910476209786,772.5496117020084,709.5065139320558,873.439298789978,741.5414045708756
1533223256.036,970.9910476209786,778.6774697471393,753.4146030335819,897.7561476928552,784.6188123825492
1533223256.04,952.2762158709559,760.2813385255889,725.92141261006,887.6251649019483,879.9990997783204
1533223256.044,950.1982095241956,735.7573492589077,671.3434712857231,875.4646652799258,787.6939696400239
1533223256.0479999,964.752770370971,754.153480480458,544.5431693382217,877.4900317698737,784.6188123825492
1533223256.052,973.0690539677388,784.817884878428,567.9334755027832,901.8110310139186,683.0756073683144
1533223256.056,954.354222217716,766.4217536568776,705.8137500168832,903.8363975038664,636.9230422991661
1533223256.06,923.167094177405,729.6294912137769,728.7939358376567,909.9166473148777,932.3082809141752
1533223256.064,946.0379386209482,754.153480480458,686.9372888656109,928.1532464067435,775.3870390583681
1533223256.0679998,950.1982095241956,778.6774697471393,624.1527386128124,911.9420138048254,618.459495650804
1533223256.072,948.1202031774354,772.5496117020084,649.1843665630661,907.8871304837619,852.3100813575343
1533223256.075,975.1470603144991,766.4217536568776,736.5904244223303,924.102513426848,969.2290726591423
1533223256.079,968.9087830644914,748.0256224353273,722.6379286281349,930.1827632378591,790.7691268974985
1533223256.083,939.7996613709406,778.6774697471393,682.8335641961098,920.0476301057845,726.1530151799881
1533223256.0870001,939.7996613709406,754.153480480458,601.5826731358269,905.8617639938142,833.8465347091721
1533223256.091,941.8819259274278,717.3612180373573,622.1004560727915,903.8363975038664,753.8483351525313
1533223256.095,964.752770370971,729.6294912137769,676.2682770533405,905.8617639938142,923.076507589994
1533223256.099,979.3073312177464,772.5496117020084,651.6467694468748,920.0476301057845,1033.8451843766527
1533223256.103,946.0379386209482,766.4217536568776,698.4273817759976,926.1278799167957,1098.4612960941631
1533223256.107,919.0110814838846,698.977643901965,624.9729793003883,897.7561476928552,993.8492353742109
1533223256.111,946.0379386209482,711.2333599922266,620.0490139433113,879.5153982598214,827.6962201942229
1533223256.1139998,973.0690539677388,698.977643901965,726.7416532976359,903.8363975038664,867.6921691966646
1533223256.1179998,964.752770370971,705.1055019470958,751.3631609041016,924.102513426848,960.0036008867183
1533223256.1220002,966.8307767177313,784.817884878428,739.0528273061391,920.0476301057845,772.3055802491364
1533223256.1260002,1016.732736508065,790.9457429235589,654.9294130182594,913.9673802947732,606.1525650691483
1533223256.13,1025.0490201048328,815.4697321902398,673.3957538257439,913.9673802947732,664.6183622717094
1533223256.1339998,958.5144931209634,858.3898526784714,765.725777042085,932.208129727807,461.538253794997
1533223256.1379998,962.6747640242108,846.1215795020518,804.2989400322057,915.9968971258888,716.921241855807
1533223256.1420002,1000.1001693145295,864.5177107236021,829.3305679824595,903.8363975038664,1046.1521149583084
1533223256.1460001,987.6236148145142,876.7859839000216,777.6259902962597,922.0729965957322,1298.466247313401
1533223256.15,985.545608467754,876.7859839000216,583.5272930826709,915.9968971258888,1064.6156616066708
1533223256.154,1010.4944592580575,889.0416999902832,673.8058741695318,920.0476301057845,735.3847885041691
1533223256.157,1004.2561820080499,876.7859839000216,934.7928463054202,946.3939958397772,864.61701193919
1533223256.161,983.4633439112669,839.993721456921,1019.3263809370877,952.4742456507885,1061.540504349196
1533223256.165,1033.3653037016006,815.4697321902398,889.2425950076613,962.6052284416953,1036.9266431858846
1533223256.169,1039.6035809516084,778.6774697471393,720.9966068424426,952.4742456507885,633.8478850416915
1533223256.1729999,987.6236148145142,772.5496117020084,831.3828505224802,964.630594931643,673.8438340441334
1533223256.177,998.0179047580423,797.0736009686894,899.0913661323557,954.4996121407362,778.4621963158428
1533223256.181,1033.3653037016006,784.817884878428,917.967827283628,930.1827632378591,738.4599457616438
1533223256.185,1004.2561820080499,778.6774697471393,851.900633459445,930.1827632378591,796.9257429642049
1533223256.189,979.3073312177464,784.817884878428,722.2278082843469,909.9166473148777,738.4599457616438
1533223256.1929998,983.4633439112669,797.0736009686894,829.7415287367879,905.8617639938142,692.3073806924955
1533223256.196,981.3853375645067,797.0736009686894,965.5695207108672,913.9673802947732,701.5391540166767
1533223256.2,962.6747640242108,784.817884878428,1003.322443013412,907.8871304837619,956.9221420774866
1533223256.204,933.56564233066,784.817884878428,947.5133002471707,918.0222636158367,1215.3865889475283
1533223256.208,939.7996613709406,784.817884878428,807.1714632598024,899.7815141828029,910.7695770083383
1533223256.2120001,962.6747640242108,754.153480480458,884.7287499943723,893.7012643717917,624.6161117175104
1533223256.216,933.56564233066,748.0256224353273,957.3620713718651,893.7012643717917,621.5409544600358
1533223256.22,881.5856761935659,766.4217536568776,958.1831524699816,895.7307812029073,796.9257429642049
1533223256.224,871.1871280403109,778.6774697471393,919.1990287255325,901.8110310139186,864.61701193919
1533223256.228,873.2651343870712,784.817884878428,804.7099007865343,875.4646652799258,756.923492410006
1533223256.232,864.9488507903033,803.2014590138202,876.5221410659107,865.3295321478511,747.6917190858248
1533223256.236,867.0311153467904,815.4697321902398,906.4777343732413,885.5956480708327,716.921241855807
1533223256.2389998,910.6947978871167,864.5177107236021,874.8808192802184,907.8871304837619,744.6165618283502
1533223256.2429998,950.1982095241956,870.6455687687328,876.1111803115822,928.1532464067435,695.3825379499701
1533223256.2470002,912.772804233877,821.5975902353706,842.4619826785384,895.7307812029073,630.7727277842168
1533223256.2510002,885.7416888870863,839.993721456921,879.8047846372954,883.5702815808849,504.61566160667064
1533223256.255,883.6636825403261,815.4697321902398,952.4381060147882,918.0222636158367,593.8456344874926
1533223256.2589998,894.0579724838541,723.5016331686462,972.955888951753,926.1278799167957,852.3100813575343
1533223256.2629998,881.5856761935659,723.5016331686462,952.8482263585762,895.7307812029073,864.61701193919
1533223256.2670002,883.6636825403261,723.5016331686462,891.7049978914699,873.439298789978,923.076507589994
1533223256.2710001,860.7928380967828,741.8977643901965,871.5973352982932,859.2534326780078,836.9216919666468
1533223256.275,844.1602709032472,735.7573492589077,917.967827283628,855.1985493569443,630.7727277842168
1533223256.2779999,873.2651343870712,698.977643901965,947.1031799033829,893.7012643717917,907.6944197508636
1533223256.282,891.9799661370939,717.3612180373573,948.3343813452872,913.9673802947732,1101.542754903395
1533223256.286,900.2962497338617,741.8977643901965,852.7208741470208,879.5153982598214,1076.9225921883265
1533223256.29,885.7416888870863,784.817884878428,819.4826372683056,869.3844154689145,855.3852386150089
1533223256.294,908.6125333306295,784.817884878428,937.6653695330169,887.6251649019483,1021.538253794997
1533223256.2979999,900.2962497338617,790.9457429235589,949.5655827871915,889.6505313918962,1301.5414045708756
1533223256.302,887.8196952338466,803.2014590138202,892.5260789895864,895.7307812029073,1058.4653470917212
1533223256.306,887.8196952338466,803.2014590138202,763.2633741582763,883.5702815808849,876.9239425208458
1533223256.31,883.6636825403261,815.4697321902398,656.5707348039517,849.118299545933,713.8460845983324
1533223256.314,877.4254052903185,797.0736009686894,809.2237457998232,867.3590489789668,504.61566160667064
1533223256.3179998,887.8196952338466,778.6774697471393,942.1792145463058,885.5956480708327,547.6930694183443
1533223256.321,923.167094177405,797.0736009686894,977.4697339650419,867.3590489789668,840.0031507758786
1533223256.325,910.6947978871167,772.5496117020084,856.4144784727339,863.3041656579034,1095.3861388366886
1533223256.329,873.2651343870712,778.6774697471393,533.8741575259514,841.012683244974,818.4644468700418
1533223256.333,881.5856761935659,784.817884878428,697.6063006778811,853.1731828669965,729.2281724374627
1533223256.3370001,894.0579724838541,790.9457429235589,945.4618581176904,887.6251649019483,867.6921691966646
1533223256.341,914.8508105806371,827.7380053666594,820.7129982996694,913.9673802947732,809.2326735458606
1533223256.345,921.0890878306448,778.6774697471393,688.5786106513032,926.1278799167957,443.07470714663486
1533223256.349,923.167094177405,778.6774697471393,505.97000634810104,913.9673802947732,439.9995498891602
1533223256.353,933.56564233066,827.7380053666594,671.753591629511,913.9673802947732,901.5378036841572
1533223256.357,935.6436486774202,821.5975902353706,834.6654940938648,940.313746028766,661.5369034624777
1533223256.36,912.772804233877,797.0736009686894,772.2910641848543,944.3644790086615,609.2340238783801
1533223256.3639998,902.374256080622,790.9457429235589,723.0488893824634,911.9420138048254,920.0013503325193
1533223256.3679998,939.7996613709406,797.0736009686894,590.9136613235565,899.7815141828029,673.8438340441334
1533223256.3720002,910.6947978871167,766.4217536568776,612.6626457024256,901.8110310139186,443.07470714663486
1533223256.3760002,891.9799661370939,729.6294912137769,609.790122474829,901.8110310139186,800.0009002216796
1533223256.38,898.2182433871016,711.2333599922266,560.5471072618974,889.6505313918962,953.8469848200119
1533223256.3839998,900.2962497338617,705.1055019470958,574.0886423017644,887.6251649019483,818.4644468700418
1533223256.3879998,887.8196952338466,692.8372287706762,509.6627702632736,881.5449150909371,683.0756073683144
1533223256.3920002,887.8196952338466,741.8977643901965,555.2130215610325,881.5449150909371,661.5369034624777
1533223256.3960001,925.2493587338921,766.4217536568776,588.0411380959599,903.8363975038664,1003.081008698392
1533223256.4,923.167094177405,754.153480480458,524.4355067450449,924.102513426848,1116.9248427425252
1533223256.4029999,943.959932274188,760.2813385255889,510.0737310176021,915.9968971258888,812.3078308033354
1533223256.407,946.0379386209482,760.2813385255889,434.1577660687246,881.5449150909371,984.6174620500299
1533223256.411,948.1202031774354,784.817884878428,462.061917246575,875.4646652799258,1095.3861388366886
1533223256.415,973.0690539677388,797.0736009686894,505.97000634810104,903.8363975038664,812.3078308033354
1533223256.419,977.2293248709863,809.341874145109,482.16873942921114,903.8363975038664,929.2331236567005
1533223256.4229999,979.3073312177464,833.8658634117902,431.6953631849158,893.7012643717917,1092.3109815792138
1533223256.427,973.0690539677388,846.1215795020518,244.57291386842482,885.5956480708327,907.6944197508636
1533223256.431,962.6747640242108,846.1215795020518,162.50094171002524,881.5449150909371,550.7682266758189
1533223256.435,975.1470603144991,846.1215795020518,480.1172972997309,907.8871304837619,593.8456344874926
1533223256.439,977.2293248709863,821.5975902353706,606.0965181491158,909.9166473148777,790.7691268974985
1533223256.4420002,946.0379386209482,803.2014590138202,506.38012669188896,901.8110310139186,787.6939696400239
1533223256.446,946.0379386209482,821.5975902353706,359.06204180742293,893.7012643717917,652.3051301382966
1533223256.45,921.0890878306448,754.153480480458,354.9583171379219,887.6251649019483,729.2281724374627
1533223256.454,898.2182433871016,741.8977643901965,425.1292356316061,893.7012643717917,1027.6948698617034
1533223256.458,952.2762158709559,778.6774697471393,395.58376266806334,911.9420138048254,864.61701193919
1533223256.4620001,960.5924994677237,766.4217536568776,443.1854560953025,922.0729965957322,956.9221420774866
1533223256.466,983.4633439112669,790.9457429235589,326.23392527249564,905.8617639938142,898.4626464266826
1533223256.47,1012.5724656048177,766.4217536568776,238.82786741323136,924.102513426848,806.157516288386
1533223256.474,1020.8887492015855,760.2813385255889,346.3407474551318,938.2883795388182,1021.538253794997
1533223256.478,1031.2872973548406,803.2014590138202,424.7191152878181,934.2334962177547,999.9995498891602
1533223256.481,989.7016211612745,803.2014590138202,465.7546811617475,918.0222636158367,984.6174620500299
1533223256.485,948.1202031774354,790.9457429235589,336.0818559866494,907.8871304837619,1040.0018004433591
1533223256.4889998,958.5144931209634,778.6774697471393,256.88324746638733,889.6505313918962,827.6962201942229
1533223256.4929998,985.545608467754,809.341874145109,352.9068750084416,885.5956480708327,572.3069305816557
1533223256.4970002,998.0179047580423,803.2014590138202,419.7951499307411,897.7561476928552,867.6921691966646
1533223256.5010002,956.4364867742032,760.2813385255889,479.707176955943,879.5153982598214,1138.4635466483621
1533223256.505,916.9288169273974,760.2813385255889,374.2448986329822,853.1731828669965,1132.3069305816557
1533223256.5089998,960.5924994677237,741.8977643901965,212.1540772667448,865.3295321478511,901.5378036841572
1533223256.5129998,995.9398984112821,717.3612180373573,297.09857265274087,889.6505313918962,593.8456344874926
1533223256.5170002,995.9398984112821,723.5016331686462,389.4285958690821,909.9166473148777,818.4644468700418
1533223256.5210001,1022.9710137580727,772.5496117020084,384.91475085579305,924.102513426848,944.6152114958309
1533223256.524,1004.2561820080499,741.8977643901965,362.3446853788074,903.8363975038664,996.9243926316856
1533223256.5279999,1002.1781756612896,735.7573492589077,351.2655532227493,911.9420138048254,981.5423047925551
1533223256.532,1068.7127026451592,772.5496117020084,501.8662816786,936.2588627077025,1067.6908188641453
1533223256.536,1035.443310048361,729.6294912137769,494.89003378150227,938.2883795388182,956.9221420774866
1533223256.54,1010.4944592580575,766.4217536568776,423.48791384591374,938.2883795388182,726.1530151799881
1533223256.544,1033.3653037016006,772.5496117020084,381.2211465300799,930.1827632378591,784.6188123825492
1533223256.5479999,1072.8687153386795,760.2813385255889,280.2735536309488,913.9673802947732,643.0796583658725
1533223256.552,1052.0801354516236,803.2014590138202,345.9306271113439,895.7307812029073,387.6903687533055
1533223256.556,1020.8887492015855,790.9457429235589,448.5195417961674,881.5449150909371,510.77227767337706
1533223256.56,1068.7127026451592,815.4697321902398,450.57182433618823,905.8617639938142,698.4639967592019
1533223256.563,1066.634696298399,809.341874145109,373.42465794540635,913.9673802947732,892.3060303599761
1533223256.5670002,1041.6815872983686,790.9457429235589,297.09857265274087,889.6505313918962,836.9216919666468
1533223256.571,1025.0490201048328,772.5496117020084,379.1697044005997,885.5956480708327,824.6147613849911
1533223256.575,1012.5724656048177,729.6294912137769,470.2685261750365,889.6505313918962,1003.081008698392
1533223256.579,1000.1001693145295,692.8372287706762,437.03028929632126,877.4900317698737,830.7713774516975
1533223256.583,964.752770370971,729.6294912137769,443.1854560953025,879.5153982598214,744.6165618283502
1533223256.5870001,948.1202031774354,784.817884878428,316.79527449158917,879.5153982598214,723.0778579225134
1533223256.591,973.0690539677388,790.9457429235589,311.8713091345122,863.3041656579034,775.3870390583681
1533223256.595,956.4364867742032,754.153480480458,623.331657514696,871.4097819588624,984.6174620500299
1533223256.599,927.3273650806524,723.5016331686462,636.463072210775,881.5449150909371,1021.538253794997
1533223256.603,979.3073312177464,698.977643901965,557.2644636905128,881.5449150909371,972.310531468374
1533223256.606,991.7796275080347,680.5815126804147,358.651921463635,873.439298789978,713.8460845983324
1533223256.61,981.3853375645067,643.789250237314,105.05131756863227,855.1985493569443,409.2290726591424
1533223256.6139998,975.1470603144991,674.453654635284,388.1973944271777,883.5702815808849,575.3820878391303
1533223256.6179998,968.9087830644914,723.5016331686462,686.5271685218229,932.208129727807,713.8460845983324
1533223256.6220002,989.7016211612745,705.1055019470958,571.2169594847082,911.9420138048254,683.0756073683144
1533223256.6260002,943.959932274188,674.453654635284,450.1617039924003,897.7561476928552,1043.0769577008339
1533223256.63,933.56564233066,662.1853814588643,506.38012669188896,913.9673802947732,984.6174620500299
1533223256.6339998,973.0690539677388,668.3132395039951,578.603327725594,928.1532464067435,627.6912689749851
1533223256.6379998,979.3073312177464,631.5335341470525,608.9690413767125,938.2883795388182,993.8492353742109
1533223256.6420002,979.3073312177464,674.453654635284,576.9611655293611,942.3391125187137,932.3082809141752
1533223256.645,981.3853375645067,711.2333599922266,442.77449534097406,934.2334962177547,612.3091811358547
1533223256.649,998.0179047580423,692.8372287706762,449.34062289428385,930.1827632378591,603.0774078116737
1533223256.6529999,1004.2561820080499,748.0256224353273,583.9374134264589,954.4996121407362,673.8438340441334
1533223256.657,995.9398984112821,790.9457429235589,536.7466807535482,958.5503451206318,895.3874891692079
1533223256.661,1010.4944592580575,815.4697321902398,540.4394446687206,946.3939958397772,763.0801084767124
1533223256.665,991.7796275080347,772.5496117020084,535.1053589678558,934.2334962177547,667.6935195291841
1533223256.669,977.2293248709863,741.8977643901965,500.6350802366956,915.9968971258888,840.0031507758786
1533223256.6729999,979.3073312177464,760.2813385255889,620.4591342870992,905.8617639938142,661.5369034624777
1533223256.677,1000.1001693145295,778.6774697471393,636.463072210775,928.1532464067435,670.7686767866587
1533223256.681,1006.3341883548101,797.0736009686894,619.6388935995234,932.208129727807,956.9221420774866
1533223256.685,1025.0490201048328,790.9457429235589,555.2130215610325,918.0222636158367,726.1530151799881
1533223256.688,1043.7638518548558,809.341874145109,487.50366554061657,911.9420138048254,363.07650758999404
1533223256.6920002,1031.2872973548406,790.9457429235589,653.2880912325671,897.7561476928552,756.923492410006
1533223256.696,1045.8418582016159,790.9457429235589,717.7139632710579,905.8617639938142,987.6926193075045
1533223256.7,1056.236148145144,784.817884878428,692.6823353208042,928.1532464067435,987.6926193075045
1533223256.704,1014.6547301613049,741.8977643901965,570.3958783865919,928.1532464067435,920.0013503325193
1533223256.708,973.0690539677388,748.0256224353273,486.6834248530407,915.9968971258888,803.0760574791542
1533223256.7120001,968.9087830644914,760.2813385255889,668.8810684019144,926.1278799167957,916.9261930750447
1533223256.716,995.9398984112821,748.0256224353273,758.3394088011994,962.6052284416953,1113.8496854850507
1533223256.72,1020.8887492015855,748.0256224353273,681.6023627542054,968.6854782527065,846.1534652908279
1533223256.724,1000.1001693145295,760.2813385255889,630.3079054117936,960.5798619517475,676.9252928533651
1533223256.7270002,970.9910476209786,803.2014590138202,562.5993898019183,958.5503451206318,769.2304229916617
1533223256.731,973.0690539677388,815.4697321902398,651.2358086925464,962.6052284416953,879.9990997783204
1533223256.735,1022.9710137580727,809.341874145109,684.4748859818021,960.5798619517475,861.5418546817153
1533223256.7389998,1008.4164529112973,778.6774697471393,689.398851338879,954.4996121407362,1021.538253794997
1533223256.7429998,998.0179047580423,778.6774697471393,732.4866997528293,952.4742456507885,1083.0792082550329
1533223256.7470002,979.3073312177464,772.5496117020084,572.0372001722842,938.2883795388182,732.3096312466945
1533223256.7510002,927.3273650806524,772.5496117020084,550.2882157934151,932.208129727807,639.9981995566408
1533223256.755,985.545608467754,790.9457429235589,661.0845798172408,948.419362329725,775.3870390583681
1533223256.7589998,1033.3653037016006,821.5975902353706,693.9135367627085,944.3644790086615,972.310531468374
1533223256.7629998,995.9398984112821,864.5177107236021,712.3790371596525,934.2334962177547,883.0805585875522
1533223256.7670002,970.9910476209786,833.8658634117902,544.1330489944338,936.2588627077025,501.540504349196
1533223256.77,991.7796275080347,821.5975902353706,558.4956651324172,930.1827632378591,652.3051301382966
1533223256.774,975.1470603144991,790.9457429235589,880.2149049810832,924.102513426848,963.078758144193
1533223256.7779999,968.9087830644914,784.817884878428,938.8965709749212,940.313746028766,1283.0778579225134
1533223256.782,991.7796275080347,821.5975902353706,812.9165097149958,940.313746028766,1049.2335737675403
1533223256.786,995.9398984112821,809.341874145109,640.566796880276,907.8871304837619,867.6921691966646
1533223256.79,1002.1781756612896,778.6774697471393,653.2880912325671,897.7561476928552,1040.0018004433591
1533223256.794,952.2762158709559,748.0256224353273,714.8414400434613,889.6505313918962,787.6939696400239
1533223256.7979999,927.3273650806524,754.153480480458,686.9372888656109,885.5956480708327,836.9216919666468
1533223256.802,935.6436486774202,735.7573492589077,735.3592229804259,909.9166473148777,1070.7722776733772
1533223256.806,896.1402370403413,668.3132395039951,638.5153547507957,918.0222636158367,716.921241855807
1533223256.809,902.374256080622,668.3132395039951,462.8821579341508,913.9673802947732,523.0792082550328
1533223256.813,921.0890878306448,662.1853814588643,728.7939358376567,920.0476301057845,1113.8496854850507
1533223256.8170002,923.167094177405,631.5335341470525,1030.405513093146,922.0729965957322,1403.0783080333533
1533223256.821,900.2962497338617,625.3931190157637,956.9519510280772,922.0729965957322,1147.6953199725433
1533223256.825,887.8196952338466,625.3931190157637,762.8532538144884,920.0476301057845,716.921241855807
1533223256.829,925.2493587338921,686.7093707255455,719.7654054005382,924.102513426848,587.6953199725432
1533223256.833,881.5856761935659,729.6294912137769,834.6654940938648,932.208129727807,550.7682266758189
1533223256.8370001,835.8397290967524,705.1055019470958,868.3146917269086,940.313746028766,618.459495650804
1533223256.841,852.476554500015,735.7573492589077,876.9322614096986,934.2334962177547,753.8483351525313
1533223256.845,846.2382772500074,748.0256224353273,779.267312081952,922.0729965957322,938.4648969808816
1533223256.849,881.5856761935659,778.6774697471393,713.6102386015568,918.0222636158367,898.4626464266826
1533223256.8520002,941.8819259274278,790.9457429235589,895.808722560971,889.6505313918962,920.0013503325193
1533223256.856,900.2962497338617,729.6294912137769,1003.7325633572,887.6251649019483,876.9239425208458
1533223256.86,860.7928380967828,760.2813385255889,996.7563154601023,895.7307812029073,790.7691268974985
1533223256.8639998,879.5034116370787,821.5975902353706,941.7682537919774,865.3295321478511,864.61701193919
1533223256.8679998,869.1091216935507,827.7380053666594,864.621927811736,863.3041656579034,806.157516288386
1533223256.8720002,858.7105735402957,852.2619946333406,972.1348078536365,893.7012643717917,680.0004501108398
1533223256.8760002,860.7928380967828,833.8658634117902,1040.6644045616283,879.5153982598214,655.3865889475284
1533223256.88,869.1091216935507,766.4217536568776,1048.050772802514,877.4900317698737,846.1534652908279
1533223256.8839998,856.6325671935355,766.4217536568776,1028.3540709636657,899.7815141828029,1018.4630965375223
1533223256.8879998,862.8708444435431,741.8977643901965,926.1752766226301,877.4900317698737,821.5396041275164
1533223256.891,875.3473989435583,748.0256224353273,913.0438619265511,871.4097819588624,553.8433839332936
1533223256.895,858.7105735402957,723.5016331686462,1029.995392749358,879.5153982598214,526.1543655125074
1533223256.899,854.5545608467753,729.6294912137769,1197.421140227001,881.5449150909371,1024.6197126042289
1533223256.9029999,864.9488507903033,790.9457429235589,1191.265133017479,859.2534326780078,1292.3096312466946
1533223256.907,837.9219936532396,760.2813385255889,1033.6881566645307,826.8268171330037,926.1516648474687
1533223256.911,848.3162835967677,766.4217536568776,1085.3935747612709,834.9324334339627,720.0027006650388
1533223256.915,875.3473989435583,809.341874145109,1176.9033572900362,867.3590489789668,769.2304229916617
1533223256.919,850.3942899435278,803.2014590138202,1176.4923965357077,885.5956480708327,815.38298806081
1533223256.9229999,854.5545608467753,790.9457429235589,1219.17012460587,863.3041656579034,1080.0040509975581
1533223256.927,846.2382772500074,778.6774697471393,1105.5012373544475,851.1478163770488,1110.7682266758188
1533223256.931,881.5856761935659,815.4697321902398,1106.3214780420235,869.3844154689145,753.8483351525313
1533223256.934,902.374256080622,827.7380053666594,1249.9467990113171,881.5449150909371,855.3852386150089
1533223256.938,875.3473989435583,821.5975902353706,1175.6721558481318,893.7012643717917,1009.2313232133413
1533223256.9420002,875.3473989435583,803.2014590138202,1121.0942145237948,887.6251649019483,787.6939696400239
1533223256.946,854.5545608467753,790.9457429235589,1036.5606798921274,873.439298789978,615.3843383933294
1533223256.95,854.5545608467753,827.7380053666594,1022.6090245084724,863.3041656579034,390.7718275625373
1533223256.954,860.7928380967828,833.8658634117902,1332.8390118572922,889.6505313918962,480.0018004433592
1533223256.958,869.1091216935507,784.817884878428,1449.3795819257707,915.9968971258888,1033.8451843766527
1533223256.9620001,871.1871280403109,778.6774697471393,1318.886516063097,899.7815141828029,947.6903687533055
1533223256.966,887.8196952338466,772.5496117020084,1164.592183281533,875.4646652799258,904.619262493389
1533223256.97,935.6436486774202,784.817884878428,1041.0753653159568,891.6758978818439,704.6143112741513
1533223256.9729998,906.5345269838693,797.0736009686894,1277.8509501891674,915.9968971258888,590.770477230018
1533223256.9770002,885.7416888870863,815.4697321902398,1448.9694615819828,905.8617639938142,929.2331236567005
1533223256.981,908.6125333306295,821.5975902353706,1411.6275000337664,895.7307812029073,1221.5432050142347
1533223256.985,887.8196952338466,803.2014590138202,1190.8550126736911,889.6505313918962,960.0036008867183
1533223256.9889998,867.0311153467904,729.6294912137769,1054.6169003558239,871.4097819588624,769.2304229916617
1533223256.9929998,925.2493587338921,735.7573492589077,1322.9902407325978,897.7561476928552,870.7673264541394
1533223256.9970002,964.752770370971,778.6774697471393,1423.5277132879412,913.9673802947732,886.1557158450269
1533223257.0010002,906.5345269838693,748.0256224353273,1403.0099303509764,889.6505313918962,1230.7686767866587
1533223257.005,885.7416888870863,754.153480480458,1269.6435008501653,899.7815141828029,984.6174620500299
1533223257.0089998,904.4565206371092,797.0736009686894,1209.3213534811755,922.0729965957322,892.3060303599761
1533223257.0129998,943.959932274188,864.5177107236021,1350.8943919104483,928.1532464067435,1187.6912689749852
1533223257.016,975.1470603144991,815.4697321902398,1350.4842715666603,938.2883795388182,1236.9252928533651
1533223257.02,935.6436486774202,748.0256224353273,1267.1810979663567,940.313746028766,1070.7722776733772
1533223257.024,916.9288169273974,766.4217536568776,1181.4172023033252,938.2883795388182,519.997749445801
1533223257.0279999,929.4053714274125,729.6294912137769,1193.7275359012879,928.1532464067435,563.0751572574746
1533223257.032,875.3473989435583,705.1055019470958,1247.4843961275083,920.0476301057845,855.3852386150089
1533223257.036,858.7105735402957,717.3612180373573,1260.2056904797994,924.102513426848,889.2308731025015
1533223257.04,871.1871280403109,729.6294912137769,1306.5761824651343,915.9968971258888,600.002250554199
1533223257.044,864.9488507903033,729.6294912137769,1308.2175042508266,913.9673802947732,563.0751572574746
1533223257.0479999,871.1871280403109,735.7573492589077,1240.5081482304106,911.9420138048254,793.8442841549731
1533223257.052,935.6436486774202,772.5496117020084,1294.675128800419,893.7012643717917,664.6183622717094
1533223257.055,973.0690539677388,772.5496117020084,1364.846047294103,918.0222636158367,867.6921691966646
1533223257.059,914.8508105806371,778.6774697471393,1310.2689463803067,922.0729965957322,836.9216919666468
1533223257.063,925.2493587338921,784.817884878428,1294.675128800419,907.8871304837619,766.1552657341871
1533223257.0670002,950.1982095241956,815.4697321902398,1109.1940012696202,895.7307812029073,898.4626464266826
1533223257.071,925.2493587338921,803.2014590138202,1167.0545861653418,877.4900317698737,1073.8474349308517
1533223257.075,933.56564233066,741.8977643901965,1345.5594657990428,871.4097819588624,993.8492353742109
1533223257.079,925.2493587338921,741.8977643901965,1229.4290160743524,893.7012643717917,895.3874891692079
1533223257.083,925.2493587338921,711.2333599922266,1257.3331672522027,879.5153982598214,956.9221420774866
1533223257.0870001,925.2493587338921,717.3612180373573,1212.60399705256,836.9619502650785,655.3865889475284
1533223257.091,941.8819259274278,748.0256224353273,1274.1573458634543,847.0929330559853,910.7695770083383
1533223257.0939999,989.7016211612745,754.153480480458,1350.8943919104483,857.223915846892,941.5400542383562
1533223257.0979998,952.2762158709559,723.5016331686462,1273.7472255196662,871.4097819588624,596.9207917449672
1533223257.1020002,898.2182433871016,748.0256224353273,1238.8668264447183,867.3590489789668,480.0018004433592
1533223257.106,864.9488507903033,778.6774697471393,1136.2779117598948,863.3041656579034,526.1543655125074
1533223257.11,908.6125333306295,772.5496117020084,1183.0585240890175,871.4097819588624,815.38298806081
1533223257.1139998,952.2762158709559,784.817884878428,1311.5001478222111,891.6758978818439,1003.081008698392
1533223257.1179998,956.4364867742032,766.4217536568776,1276.209628403475,907.8871304837619,984.6174620500299
1533223257.1220002,962.6747640242108,735.7573492589077,1229.4290160743524,893.7012643717917,907.6944197508636
1533223257.1260002,975.1470603144991,778.6774697471393,1073.0824007527676,887.6251649019483,916.9261930750447
1533223257.13,987.6236148145142,827.7380053666594,1014.4015751694703,909.9166473148777,787.6939696400239
1533223257.1339998,950.1982095241956,815.4697321902398,1192.0862141155956,940.313746028766,643.0796583658725
1533223257.137,946.0379386209482,809.341874145109,1325.451803205866,956.524978630684,1024.6197126042289
1533223257.141,975.1470603144991,797.0736009686894,1280.7234734167641,952.4742456507885,907.6944197508636
1533223257.145,983.4633439112669,778.6774697471393,1083.7522529755786,952.4742456507885,535.3861388366886
1533223257.149,977.2293248709863,803.2014590138202,1091.1386212164643,936.2588627077025,769.2304229916617
1533223257.1529999,943.959932274188,827.7380053666594,1221.6316870791381,930.1827632378591,643.0796583658725
1533223257.157,939.7996613709406,772.5496117020084,1203.9864273697701,960.5798619517475,596.9207917449672
1533223257.161,950.1982095241956,741.8977643901965,1226.9666131905435,950.4447288196727,947.6903687533055
1533223257.165,973.0690539677388,797.0736009686894,1098.114869113562,938.2883795388182,913.8447342658129
1533223257.169,1004.2561820080499,766.4217536568776,1000.4499197858154,952.4742456507885,658.461746205003
1533223257.1729999,979.3073312177464,723.5016331686462,1070.2107179357115,958.5503451206318,526.1543655125074
1533223257.176,943.959932274188,735.7573492589077,1073.0824007527676,972.736211232602,529.229522769982
1533223257.18,943.959932274188,741.8977643901965,1111.246283809641,966.6601117627588,732.3096312466945
1533223257.184,958.5144931209634,741.8977643901965,1076.776005078481,964.630594931643,904.619262493389
1533223257.188,991.7796275080347,729.6294912137769,1019.3263809370877,942.3391125187137,790.7691268974985
1533223257.1920002,1018.8107428548253,772.5496117020084,1128.891543519009,928.1532464067435,990.7677765649792
1533223257.196,998.0179047580423,839.993721456921,1151.460768585454,948.419362329725,1107.6930694183443
1533223257.2,993.8618920645218,858.3898526784714,1076.3658847346928,942.3391125187137,790.7691268974985
1533223257.204,979.3073312177464,833.8658634117902,1064.0547107261898,942.3391125187137,750.7668763432995
1533223257.208,941.8819259274278,852.2619946333406,883.08742820868,934.2334962177547,541.5364533516379
1533223257.2120001,925.2493587338921,846.1215795020518,985.2662225497155,938.2883795388182,526.1543655125074
1533223257.216,970.9910476209786,809.341874145109,1250.356919355105,966.6601117627588,726.1530151799881
1533223257.2189999,973.0690539677388,803.2014590138202,1139.1504349874913,968.6854782527065,999.9995498891602
1533223257.2229998,966.8307767177313,803.2014590138202,1050.9232960301108,940.313746028766,1116.9248427425252
1533223257.2270002,1033.3653037016006,803.2014590138202,901.1436486723765,915.9968971258888,898.4626464266826
1533223257.231,1031.2872973548406,803.2014590138202,826.4580447548627,932.208129727807,686.1570661775462
1533223257.235,1002.1781756612896,846.1215795020518,1155.154372911167,964.630594931643,978.4608459833233
1533223257.2389998,1014.6547301613049,852.2619946333406,1275.7986676491466,958.5503451206318,1160.002250554199
1533223257.2429998,1016.732736508065,864.5177107236021,1061.182187498593,942.3391125187137,879.9990997783204
1533223257.2470002,1012.5724656048177,864.5177107236021,968.0310831841355,944.3644790086615,1027.6948698617034
1533223257.2510002,991.7796275080347,833.8658634117902,1047.2305321149381,930.1827632378591,1076.9225921883265
1533223257.255,995.9398984112821,809.341874145109,1033.6881566645307,938.2883795388182,630.7727277842168
1533223257.258,1020.8887492015855,821.5975902353706,1046.4094510168218,964.630594931643,913.8447342658129
1533223257.262,1014.6547301613049,803.2014590138202,988.9598268754287,942.3391125187137,821.5396041275164
1533223257.266,1000.1001693145295,839.993721456921,831.3828505224802,915.9968971258888,744.6165618283502
1533223257.27,1006.3341883548101,889.0416999902832,881.8562267667755,911.9420138048254,824.6147613849911
1533223257.274,1004.2561820080499,858.3898526784714,1036.9716406464559,926.1278799167957,763.0801084767124
1533223257.2779999,1000.1001693145295,809.341874145109,1062.0032685967094,932.208129727807,1261.5391540166765
1533223257.282,985.545608467754,815.4697321902398,988.1387457773122,909.9166473148777,1120.0
1533223257.286,956.4364867742032,827.7380053666594,807.5824240141309,905.8617639938142,667.6935195291841
1533223257.29,948.1202031774354,754.153480480458,817.8413154826133,909.9166473148777,652.3051301382966
1533223257.294,954.354222217716,766.4217536568776,930.2790012921312,915.9968971258888,415.38568872584875
1533223257.2979999,973.0690539677388,784.817884878428,936.8442884349005,918.0222636158367,553.8433839332936
1533223257.301,973.0690539677388,766.4217536568776,924.5339548369378,905.8617639938142,935.3834381716498
1533223257.305,989.7016211612745,748.0256224353273,817.0202343844968,889.6505313918962,898.4626464266826
1533223257.309,948.1202031774354,772.5496117020084,826.0479244110749,883.5702815808849,815.38298806081
1533223257.313,925.2493587338921,784.817884878428,888.8324746638733,899.7815141828029,824.6147613849911
1533223257.3170002,937.7216550241804,809.341874145109,860.1080827984471,907.8871304837619,750.7668763432995
1533223257.321,952.2762158709559,833.8658634117902,896.6298036590874,893.7012643717917,756.923492410006
1533223257.325,970.9910476209786,827.7380053666594,827.2791258529792,895.7307812029073,849.2286225483025
1533223257.329,925.2493587338921,839.993721456921,831.3828505224802,901.8110310139186,667.6935195291841
1533223257.333,894.0579724838541,815.4697321902398,982.3936993221189,913.9673802947732,510.77227767337706
1533223257.3370001,881.5856761935659,784.817884878428,972.955888951753,942.3391125187137,883.0805585875522
1533223257.34,902.374256080622,803.2014590138202,948.7445016890752,952.4742456507885,1061.540504349196
1533223257.3439999,902.374256080622,821.5975902353706,874.0597381821019,948.419362329725,981.5423047925551
1533223257.3479998,867.0311153467904,790.9457429235589,778.4470713943762,926.1278799167957,895.3874891692079
1533223257.3520002,881.5856761935659,754.153480480458,892.5260789895864,926.1278799167957,806.157516288386
1533223257.356,916.9288169273974,735.7573492589077,881.4461064229877,934.2334962177547,590.770477230018
1533223257.36,921.0890878306448,760.2813385255889,784.6022381933575,922.0729965957322,526.1543655125074
1533223257.3639998,883.6636825403261,784.817884878428,768.5983002696818,901.8110310139186,803.0760574791542
1533223257.3679998,867.0311153467904,803.2014590138202,750.1319594621973,913.9673802947732,667.6935195291841
1533223257.3720002,875.3473989435583,858.3898526784714,856.4144784727339,936.2588627077025,766.1552657341871
1533223257.3760002,898.2182433871016,895.1821151215722,882.267187521104,928.1532464067435,806.157516288386
1533223257.38,935.6436486774202,882.9138419451524,852.7208741470208,928.1532464067435,840.0031507758786
1533223257.383,898.2182433871016,858.3898526784714,854.3630363432537,944.3644790086615,895.3874891692079
1533223257.387,883.6636825403261,833.8658634117902,655.7496537058353,936.2588627077025,581.5387039058368
1533223257.391,900.2962497338617,827.7380053666594,749.7218391184093,920.0476301057845,627.6912689749851
1533223257.395,914.8508105806371,833.8658634117902,1048.4617335568425,942.3391125187137,1024.6197126042289
1533223257.399,921.0890878306448,827.7380053666594,973.7761296393288,950.4447288196727,1043.0769577008339
1533223257.4029999,904.4565206371092,809.341874145109,869.9560135126009,950.4447288196727,821.5396041275164
1533223257.407,902.374256080622,827.7380053666594,645.4907622373529,946.3939958397772,600.002250554199
1533223257.411,941.8819259274278,815.4697321902398,471.4997276169409,948.419362329725,387.6903687533055
1533223257.415,950.1982095241956,803.2014590138202,794.0400485637234,970.7108447426543,830.7713774516975
1533223257.419,937.7216550241804,803.2014590138202,1032.0468348788384,970.7108447426543,1107.6930694183443
1533223257.4220002,946.0379386209482,809.341874145109,904.0161718999732,964.630594931643,646.1548156233473
1533223257.426,943.959932274188,809.341874145109,763.2633741582763,964.630594931643,516.9225921883263
1533223257.43,962.6747640242108,778.6774697471393,826.0479244110749,962.6052284416953,944.6152114958309
1533223257.434,925.2493587338921,803.2014590138202,882.267187521104,966.6601117627588,990.7677765649792
1533223257.438,879.5034116370787,821.5975902353706,794.0400485637234,966.6601117627588,676.9252928533651
1533223257.4420002,904.4565206371092,803.2014590138202,766.135897385873,956.524978630684,692.3073806924955
1533223257.446,929.4053714274125,803.2014590138202,718.9451647129623,926.1278799167957,935.3834381716498
1533223257.45,941.8819259274278,827.7380053666594,718.5342039586338,928.1532464067435,855.3852386150089
1533223257.454,956.4364867742032,846.1215795020518,737.8216258642346,962.6052284416953,818.4644468700418
1533223257.458,950.1982095241956,821.5975902353706,727.5627343957523,934.2334962177547,1006.1561659558666
1533223257.4620001,933.56564233066,821.5975902353706,828.5103272948835,891.6758978818439,1092.3109815792138
1533223257.465,925.2493587338921,827.7380053666594,746.0282347926963,889.6505313918962,1012.3064804708159
1533223257.4689999,929.4053714274125,809.341874145109,622.1004560727915,889.6505313918962,707.6957700833831
1533223257.4729998,935.6436486774202,784.817884878428,737.8216258642346,920.0476301057845,473.84518437665275
1533223257.4770002,910.6947978871167,729.6294912137769,863.3907263698317,934.2334962177547,769.2304229916617
1533223257.481,887.8196952338466,735.7573492589077,848.2070291337318,907.8871304837619,806.157516288386
1533223257.485,910.6947978871167,790.9457429235589,693.0924556645922,889.6505313918962,596.9207917449672
1533223257.4889998,946.0379386209482,815.4697321902398,699.658583217902,903.8363975038664,889.2308731025015
1533223257.4929998,933.56564233066,809.341874145109,876.9322614096986,915.9968971258888,1027.6948698617034
1533223257.4970002,912.772804233877,839.993721456921,859.6971220441186,907.8871304837619,926.1516648474687
1533223257.5010002,906.5345269838693,858.3898526784714,771.4708234972784,893.7012643717917,966.1539154016676
1533223257.504,908.6125333306295,839.993721456921,675.857316299012,887.6251649019483,969.2290726591423
1533223257.508,904.4565206371092,846.1215795020518,670.9333509419351,883.5702815808849,726.1530151799881
1533223257.512,902.374256080622,852.2619946333406,879.3946642935074,899.7815141828029,778.4621963158428
1533223257.516,910.6947978871167,858.3898526784714,936.4341680911125,928.1532464067435,876.9239425208458
1533223257.52,919.0110814838846,797.0736009686894,883.9085093067964,915.9968971258888,873.8487852633712
1533223257.524,904.4565206371092,778.6774697471393,818.6615561701891,897.7561476928552,1030.7700271191782
1533223257.5279999,919.0110814838846,809.341874145109,718.1240836148459,895.7307812029073,990.7677765649792
1533223257.532,912.772804233877,839.993721456921,842.4619826785384,897.7561476928552,1036.9266431858846
1533223257.536,898.2182433871016,864.5177107236021,904.836412587549,924.102513426848,1107.6930694183443
1533223257.54,887.8196952338466,876.7859839000216,841.2316216471746,938.2883795388182,895.3874891692079
1533223257.544,875.3473989435583,858.3898526784714,840.8206608928461,911.9420138048254,1203.0796583658725
1533223257.5470002,862.8708444435431,882.9138419451524,739.0528273061391,901.8110310139186,1292.3096312466946
1533223257.551,858.7105735402957,876.7859839000216,718.1240836148459,918.0222636158367,846.1534652908279
1533223257.555,896.1402370403413,839.993721456921,821.1239590539979,924.102513426848,907.6944197508636
1533223257.559,896.1402370403413,858.3898526784714,824.4066026253824,915.9968971258888,929.2331236567005
1533223257.563,862.8708444435431,864.5177107236021,787.0638006666256,909.9166473148777,560.0
1533223257.5670002,894.0579724838541,852.2619946333406,677.9095988390329,891.6758978818439,556.9248427425254
1533223257.571,896.1402370403413,852.2619946333406,751.3631609041016,903.8363975038664,895.3874891692079
1533223257.575,891.9799661370939,846.1215795020518,1024.6604666379526,932.208129727807,984.6174620500299
1533223257.579,916.9288169273974,784.817884878428,1006.6050865847967,924.102513426848,766.1552657341871
1533223257.583,921.0890878306448,778.6774697471393,896.218842904759,922.0729965957322,784.6188123825492
1533223257.586,923.167094177405,870.6455687687328,672.1645523838395,938.2883795388182,636.9230422991661
1533223257.59,916.9288169273974,858.3898526784714,675.0370756114362,934.2334962177547,366.1516648474687
1533223257.5939999,921.0890878306448,790.9457429235589,907.7089358151457,932.208129727807,636.9230422991661
1533223257.5979998,929.4053714274125,790.9457429235589,941.7682537919774,936.2588627077025,1046.1521149583084
1533223257.6020002,927.3273650806524,784.817884878428,971.7246875098485,915.9968971258888,938.4648969808816
1533223257.606,935.6436486774202,809.341874145109,768.1873395153533,897.7561476928552,756.923492410006
1533223257.61,954.354222217716,839.993721456921,664.3672233886253,905.8617639938142,590.770477230018
1533223257.6139998,956.4364867742032,815.4697321902398,933.1515245197279,936.2588627077025,600.002250554199
1533223257.6179998,910.6947978871167,803.2014590138202,993.0635515449297,942.3391125187137,972.310531468374
1533223257.6220002,910.6947978871167,784.817884878428,925.7643158683017,911.9420138048254,1110.7682266758188
1533223257.6260002,908.6125333306295,772.5496117020084,797.322692135108,893.7012643717917,923.076507589994
1533223257.629,898.2182433871016,797.0736009686894,773.1121452829707,922.0729965957322,732.3096312466945
1533223257.633,929.4053714274125,815.4697321902398,881.8562267667755,950.4447288196727,901.5378036841572
1533223257.637,904.4565206371092,852.2619946333406,880.2149049810832,976.7910945536655,1110.7682266758188
1533223257.641,871.1871280403109,858.3898526784714,803.0677385903014,982.8713443646768,1240.00045011084
1533223257.645,894.0579724838541,809.341874145109,652.4670101344507,938.2883795388182,1067.6908188641453
1533223257.649,898.2182433871016,797.0736009686894,710.3275950301722,915.9968971258888,766.1552657341871
1533223257.6529999,908.6125333306295,797.0736009686894,915.5054243998193,930.1827632378591,923.076507589994
1533223257.657,946.0379386209482,772.5496117020084,869.135772825025,932.208129727807,833.8465347091721
1533223257.661,921.0890878306448,760.2813385255889,852.3107538032328,936.2588627077025,901.5378036841572
1533223257.665,898.2182433871016,797.0736009686894,732.4866997528293,924.102513426848,815.38298806081
1533223257.668,921.0890878306448,809.341874145109,651.6467694468748,901.8110310139186,578.4635466483621
1533223257.6720002,931.4833777741728,815.4697321902398,810.8650675855155,905.8617639938142,621.5409544600358
1533223257.676,904.4565206371092,797.0736009686894,841.6417419909626,915.9968971258888,787.6939696400239
1533223257.68,883.6636825403261,803.2014590138202,848.2070291337318,909.9166473148777,1089.2295227699822
1533223257.684,891.9799661370939,833.8658634117902,774.3433467248751,903.8363975038664,1150.7704772300178
1533223257.688,925.2493587338921,833.8658634117902,616.7663703719267,899.7815141828029,956.9221420774866
1533223257.6920002,952.2762158709559,790.9457429235589,690.6300527807834,909.9166473148777,913.8447342658129
1533223257.696,933.56564233066,760.2813385255889,794.8611296618398,924.102513426848,984.6174620500299
1533223257.7,921.0890878306448,754.153480480458,831.7929708662682,899.7815141828029,1055.3838882824896
1533223257.704,929.4053714274125,760.2813385255889,779.267312081952,883.5702815808849,781.5373535733174
1533223257.708,977.2293248709863,760.2813385255889,689.8098120932075,907.8871304837619,701.5391540166767
1533223257.711,991.7796275080347,748.0256224353273,797.322692135108,913.9673802947732,867.6921691966646
1533223257.715,925.2493587338921,784.817884878428,846.9758276918275,942.3391125187137,916.9261930750447
1533223257.7189999,929.4053714274125,827.7380053666594,796.5024514475322,934.2334962177547,815.38298806081
1533223257.7229998,919.0110814838846,797.0736009686894,761.622052372584,887.6251649019483,790.7691268974985
1533223257.7270002,883.6636825403261,778.6774697471393,685.2959670799186,891.6758978818439,778.4621963158428
1533223257.731,912.772804233877,790.9457429235589,782.9609164076652,918.0222636158367,984.6174620500299
1533223257.735,933.56564233066,760.2813385255889,797.322692135108,924.102513426848,1015.3879392800477
1533223257.7389998,931.4833777741728,754.153480480458,699.2476224635734,942.3391125187137,793.8442841549731
1533223257.7429998,941.8819259274278,790.9457429235589,704.1724282311909,926.1278799167957,621.5409544600358
1533223257.7470002,935.6436486774202,790.9457429235589,684.8850063255901,899.7815141828029,556.9248427425254
1533223257.75,912.772804233877,784.817884878428,762.8532538144884,920.0476301057845,683.0756073683144
1533223257.754,937.7216550241804,784.817884878428,843.2830637766549,954.4996121407362,809.2326735458606
1533223257.758,954.354222217716,778.6774697471393,821.1239590539979,950.4447288196727,867.6921691966646
1533223257.762,958.5144931209634,833.8658634117902,849.8483509194241,913.9673802947732,920.0013503325193
1533223257.766,956.4364867742032,858.3898526784714,753.4146030335819,893.7012643717917,818.4644468700418
1533223257.77,943.959932274188,809.341874145109,721.4067271862305,887.6251649019483,538.4612960941632
1533223257.774,941.8819259274278,729.6294912137769,935.2029666492082,893.7012643717917,800.0009002216796
1533223257.7779999,906.5345269838693,754.153480480458,1004.5528040447758,891.6758978818439,1196.9230422991661
1533223257.782,887.8196952338466,833.8658634117902,878.5735831953909,895.7307812029073,1006.1561659558666
1533223257.786,900.2962497338617,815.4697321902398,686.9372888656109,881.5449150909371,609.2340238783801
1533223257.789,931.4833777741728,778.6774697471393,656.1606144601637,859.2534326780078,876.9239425208458
1533223257.793,916.9288169273974,760.2813385255889,893.3463196771623,879.5153982598214,1092.3109815792138
1533223257.7970002,858.7105735402957,778.6774697471393,1014.8125359237988,920.0476301057845,895.3874891692079
1533223257.801,896.1402370403413,809.341874145109,1007.836288026701,924.102513426848,846.1534652908279
1533223257.805,958.5144931209634,815.4697321902398,824.4066026253824,907.8871304837619,655.3865889475284
1533223257.809,960.5924994677237,821.5975902353706,632.3593475412739,899.7815141828029,600.002250554199
1533223257.813,989.7016211612745,821.5975902353706,897.4500443466634,913.9673802947732,793.8442841549731
1533223257.8170002,1014.6547301613049,821.5975902353706,1080.469609404194,940.313746028766,1021.538253794997
1533223257.821,973.0690539677388,839.993721456921,1020.1466216246637,936.2588627077025,1200.004501108398
1533223257.825,979.3073312177464,833.8658634117902,878.163462851603,911.9420138048254,1061.540504349196
1533223257.829,1008.4164529112973,815.4697321902398,745.2079941051204,893.7012643717917,729.2281724374627
1533223257.832,998.0179047580423,809.341874145109,850.2593116737527,907.8871304837619,701.5391540166767
1533223257.836,985.545608467754,815.4697321902398,965.1594003670793,932.208129727807,879.9990997783204
1533223257.84,991.7796275080347,827.7380053666594,945.0517377739026,924.102513426848,655.3865889475284
1533223257.8439999,981.3853375645067,815.4697321902398,840.0004202052703,885.5956480708327,535.3861388366886
1533223257.8479998,954.354222217716,790.9457429235589,784.191277439029,871.4097819588624,529.229522769982
1533223257.8520002,979.3073312177464,778.6774697471393,905.6574936856655,901.8110310139186,412.3105314683741
1533223257.856,968.9087830644914,766.4217536568776,986.9075443354078,909.9166473148777,861.5418546817153
1533223257.86,966.8307767177313,803.2014590138202,943.4104159882103,915.9968971258888,876.9239425208458
1533223257.8639998,933.56564233066,833.8658634117902,844.1041448747714,901.8110310139186,606.1525650691483
1533223257.8679998,929.4053714274125,797.0736009686894,782.9609164076652,875.4646652799258,680.0004501108398
1533223257.871,896.1402370403413,797.0736009686894,890.4737964495656,887.6251649019483,667.6935195291841
1533223257.875,881.5856761935659,809.341874145109,913.864102614127,891.6758978818439,892.3060303599761
1533223257.879,929.4053714274125,784.817884878428,890.4737964495656,867.3590489789668,1212.3114316900537
1533223257.883,921.0890878306448,821.5975902353706,825.2276837234989,859.2534326780078,950.7718275625373
1533223257.887,948.1202031774354,858.3898526784714,769.8295017115861,875.4646652799258,433.8492353742109
1533223257.891,902.374256080622,809.341874145109,985.2662225497155,891.6758978818439,849.2286225483025
1533223257.895,923.167094177405,797.0736009686894,1039.8441638740526,911.9420138048254,1101.542754903395
1533223257.899,964.752770370971,803.2014590138202,920.8403505112248,915.9968971258888,713.8460845983324
1533223257.9029999,921.0890878306448,797.0736009686894,915.0953040560314,909.9166473148777,867.6921691966646
1533223257.907,908.6125333306295,790.9457429235589,816.6101140407089,903.8363975038664,772.3055802491364
1533223257.911,941.8819259274278,778.6774697471393,828.5103272948835,922.0729965957322,516.9225921883263
1533223257.914,956.4364867742032,760.2813385255889,932.3304434216114,956.524978630684,621.5409544600358
1533223257.918,894.0579724838541,729.6294912137769,942.5893348900938,930.1827632378591,978.4608459833233
1533223257.9220002,894.0579724838541,741.8977643901965,830.1516490805759,885.5956480708327,1067.6908188641453
1533223257.926,977.2293248709863,754.153480480458,707.4550718025755,895.7307812029073,833.8465347091721
1533223257.93,989.7016211612745,815.4697321902398,799.7850950189168,934.2334962177547,941.5400542383562
1533223257.934,950.1982095241956,809.341874145109,875.7010599677943,940.313746028766,944.6152114958309
1533223257.938,970.9910476209786,778.6774697471393,866.6733699412163,936.2588627077025,990.7677765649792
1533223257.9420002,985.545608467754,790.9457429235589,835.4865751919813,936.2588627077025,873.8487852633712
1533223257.946,970.9910476209786,803.2014590138202,700.4788239054778,918.0222636158367,584.6138611633114
1533223257.95,979.3073312177464,809.341874145109,737.8216258642346,915.9968971258888,809.2326735458606
1533223257.9529998,981.3853375645067,827.7380053666594,894.5775211190667,918.0222636158367,1018.4630965375223
1533223257.957,1008.4164529112973,815.4697321902398,867.0834902850042,924.102513426848,972.310531468374
1533223257.961,983.4633439112669,784.817884878428,855.1832770308296,918.0222636158367,1021.538253794997
