timestamps,TP9,AF7,AF8,TP10,Right AUX
1533060931.117,1021.6682161839774,1015.9234883582209,777.7764012060454,1098.6295630422887,1098.2115492654705
1533060931.121,1161.967828512288,1011.2612093134234,772.594198592947,1115.7276635660126,1039.3793853620052
1533060931.125,1223.1255810689916,1020.5809953671485,798.5158309260886,1171.2943015711717,908.6352932738855
1533060931.1279998,1082.825968740681,1018.2522418626846,819.2552606461319,1167.0219651371845,928.2482458551978
1533060931.1320002,985.6926342379006,1025.243274411946,757.0369714860021,1107.1742359102634,1137.4307605876234
1533060931.1360002,913.7488378620169,1022.9145209074821,715.5581120459157,1060.152270773079,977.2739334680069
1533060931.14,1061.2391460697809,1001.9414232596981,757.0369714860021,1060.152270773079,588.3283328751239
1533060931.144,1136.7856579016611,994.9503907104369,850.3697148600216,1055.8799343390917,339.91991298007383
1533060931.1479998,1003.6841089690739,983.3018511522479,808.8908554199352,1030.2284061596185,614.4744737565593
1533060931.1520002,928.1375971371937,971.648539558189,689.6258604451243,1021.6749785038693,1023.0330269307545
1533060931.1560001,874.1779079762134,985.6306046567116,611.8503441780497,983.2064410224341,630.82083218781
1533060931.16,1018.0728682442507,997.2839162507705,585.9180925772583,991.7511138904089,552.3757157030325
1533060931.164,1143.9837212973846,978.6395721074504,627.4075712849946,1030.2284061596185,993.6202918992576
1533060931.168,1032.4616275194273,939.026902352216,642.9647983919394,1030.2284061596185,980.5472214585399
1533060931.171,964.1131790832704,955.3377209552025,601.4753196842032,1017.402642069882,947.86119843651
1533060931.175,928.1375971371937,992.621637205973,559.9964602441167,966.1083404987103,1124.3576901469057
1533060931.179,1010.8748048485273,985.6306046567116,611.8503441780497,978.9341045884468,781.164489176299
1533060931.1829998,1136.7856579016611,973.9820650985226,658.5114062312346,1060.152270773079,856.3430115110149
1533060931.187,1028.8662795797006,957.6712464955361,674.0686333381794,1030.2284061596185,774.6313008761758
1533060931.191,920.9395337414703,955.3377209552025,674.0686333381794,961.8360040647229,431.438099905569
1533060931.195,802.2267440840599,960.0,611.8503441780497,906.2606112717892,813.8505121983288
1533060931.199,856.1864332450401,948.351460441811,585.9180925772583,901.9882748378019,1052.4524558027229
1533060931.2029998,1050.445734734331,948.351460441811,637.7719765111913,978.9341045884468,670.040043509963
1533060931.207,985.6926342379006,948.351460441811,653.3292036181361,983.2064410224341,650.4270909286507
1533060931.211,852.5910853053134,941.3604278925496,591.1109144580065,923.3587117955132,866.149487801671
1533060931.214,766.2511621379831,953.0089674507386,570.3714847379632,897.70718361604,905.368699123824
1533060931.218,831.0042626344133,960.0,539.2570305240735,931.9121394512624,1075.3320025340965
1533060931.2220001,1000.0813935130774,946.0179349014774,554.8142576310183,974.653013366685,875.9559640923271
1533060931.226,1003.6841089690739,957.6712464955361,648.1470010050379,1025.956069725631,820.3903943389234
1533060931.23,920.9395337414703,964.6622790447975,601.4753196842032,1004.5768779801454,1196.2629244910886
1533060931.234,831.0042626344133,976.3108186029865,544.4392331371719,966.1083404987103,882.4891523924503
1533060931.238,946.1217043520971,1011.2612093134234,565.178662857215,996.0322051121707,725.6056132633666
1533060931.242,1190.7453470626415,1006.6037023044956,580.7358899641599,1008.8579692019073,983.8138156086014
1533060931.246,1165.5631764520147,983.3018511522479,684.4436578320259,1021.6749785038693,1209.3359949318065
1533060931.25,1003.6841089690739,957.6712464955361,741.4797443790573,1004.5768779801454,1101.478143415532
1533060931.2529998,877.7732559159401,953.0089674507386,684.4436578320259,991.7511138904089,1264.9015646852101
1533060931.2570002,964.1131790832704,973.9820650985226,658.5114062312346,1030.2284061596185,1147.2372368782796
1533060931.2610002,1208.736821793815,999.6126697552344,710.3652901651675,1068.7056984288283,924.9816517051362
1533060931.265,1208.736821793815,994.9503907104369,736.297541765959,1047.3265066833424,1634.2409065372522
1533060931.269,1093.619380076131,987.9593581611755,658.5114062312346,1034.500742593606,1281.2412292759893
1533060931.2729998,1025.263564123704,1001.9414232596981,575.5536873510616,1000.304541546158,333.3867246799507
1533060931.2770002,1018.0728682442507,1001.9414232596981,570.3714847379632,949.0102399749863,71.90523434418293
1533060931.2810001,1194.348062518638,1011.2612093134234,591.1109144580065,961.8360040647229,539.3026452623149
1533060931.285,1215.927517673268,1008.9324558089595,580.7358899641599,1000.304541546158,830.1968706295795
1533060931.289,1111.6034872910345,1018.2522418626846,554.8142576310183,1043.0541702493551,728.8722074134282
1533060931.293,1036.056975459154,1036.891813970135,502.9603736970854,1090.0761353865396,889.0290345330448
1533060931.296,974.8992229024506,1039.2253395104688,544.4392331371719,1081.5227077307902,885.7557465425118
1533060931.3,1115.1988352307612,1036.891813970135,705.1830875520692,1090.0761353865396,944.5879104459771
1533060931.304,1147.5790692371113,1025.243274411946,725.9225172721124,1090.0761353865396,823.656988488985
1533060931.3079998,1018.0728682442507,1008.9324558089595,700.0008849389708,1043.0541702493551,918.4417695645417
1533060931.312,949.7170522918238,1020.5809953671485,808.8908554199352,1038.7818338153677,807.3173238982057
1533060931.316,924.534881681197,1029.9007814208737,891.8485743001081,1081.5227077307902,539.3026452623149
1533060931.32,1050.445734734331,1025.243274411946,902.2235987939546,1107.1742359102634,741.945277854146
1533060931.324,1143.9837212973846,1027.5720279164098,845.1875122469232,1107.1742359102634,715.7991369727106
1533060931.3279998,1050.445734734331,1027.5720279164098,855.5519174731199,1145.6515281794732,862.876199811138
1533060931.332,935.3282930166471,1034.5630604656712,928.1452311270962,1149.9238646134604,889.0290345330448
1533060931.336,852.5910853053134,1029.9007814208737,954.0668634602378,1094.3484718205268,751.751754144802
1533060931.339,1028.8662795797006,1029.9007814208737,979.9991150610292,1145.6515281794732,473.930599218255
1533060931.343,1183.554651183188,1041.5540930149325,1026.660177114214,1188.3924020948957,277.821154926547
1533060931.3470001,1100.8100759555844,1055.5361581134553,1031.8529989949623,1141.3704369577113,598.1348091657801
1533060931.351,1054.0484501903275,1062.5224186268467,985.1813176741275,1115.7276635660126,575.2552624344063
1533060931.355,989.2953496938973,1053.2026325731215,1016.2957718880173,1055.8799343390917,630.82083218781
1533060931.359,1118.8015506867578,1055.5361581134553,1021.4779745011157,1030.2284061596185,1150.5038310283412
1533060931.363,1287.8786815654219,1062.5224186268467,979.9991150610292,1072.9780348628155,1173.383377759715
1533060931.367,1140.3810058413878,1048.5451255641938,969.6240905671826,1055.8799343390917,1058.985644102846
1533060931.371,992.890697633624,1039.2253395104688,922.9630285139979,987.4787774564214,974.0073393179454
1533060931.375,902.955426526567,1036.891813970135,912.5880040201513,949.0102399749863,817.1238001888619
1533060931.379,967.7085270229971,1022.9145209074821,922.9630285139979,974.653013366685,970.7407451678838
1533060931.3820002,1079.2306208009543,1020.5809953671485,886.6663716870097,970.3806769326976,1140.697354737685
1533060931.3860002,1003.6841089690739,1013.594734853757,819.2552606461319,914.8052841397639,862.876199811138
1533060931.39,924.534881681197,1001.9414232596981,757.0369714860021,936.1844758852498,889.0290345330448
1533060931.394,859.7817811847668,1025.243274411946,757.0369714860021,1013.1303056358946,1036.106097371472
1533060931.3979998,938.9310084726437,1034.5630604656712,751.844149605254,1034.500742593606,974.0073393179454
1533060931.4020002,1147.5790692371113,1034.5630604656712,834.8124877530768,1064.4246072070664,918.4417695645417
1533060931.4060001,1165.5631764520147,1036.891813970135,865.9269419669665,1154.1962010474479,647.1604967785892
1533060931.41,1050.445734734331,1027.5720279164098,746.6619469921557,1128.5534276557491,804.0440359076728
1533060931.414,946.1217043520971,1034.5630604656712,668.886430725081,1077.250371296803,1134.1641664375618
1533060931.418,1000.0813935130774,1027.5720279164098,622.2147494042464,1081.5227077307902,1163.5769014690588
1533060931.4220002,1161.967828512288,1022.9145209074821,642.9647983919394,1132.8257640897366,1026.3063149212876
1533060931.425,1143.9837212973846,1015.9234883582209,705.1830875520692,1137.0981005237238,905.368699123824
1533060931.429,1068.4372094655043,1015.9234883582209,720.7403146590141,1098.6295630422887,1065.5255262434405
1533060931.4329998,960.5104636272738,1020.5809953671485,757.0369714860021,1064.4246072070664,1081.8651908342197
1533060931.437,953.3197677478205,1032.2343069612073,731.1047198852108,1047.3265066833424,1134.1641664375618
1533060931.441,1194.348062518638,1057.864911617919,793.3336283129903,1167.0219651371845,1320.4671344386138
1533060931.445,1259.1011630150683,1057.864911617919,850.3697148600216,1179.847729226921,853.0764173609533
1533060931.449,1143.9837212973846,1057.864911617919,829.6302851399784,1137.0981005237238,526.2228809811257
1533060931.4529998,1018.0728682442507,1043.8828465193963,850.3697148600216,1141.3704369577113,1068.792120393502
1533060931.457,992.890697633624,1036.891813970135,902.2235987939546,1141.3704369577113,1359.6863457607667
1533060931.461,1147.5790692371113,1032.2343069612073,974.8169124479308,1188.3924020948957,1072.0587145435636
1533060931.465,1143.9837212973846,1020.5809953671485,1000.7385447810724,1201.2181661846323,702.7260665319928
1533060931.468,1010.8748048485273,1015.9234883582209,985.1813176741275,1132.8257640897366,862.876199811138
1533060931.4720001,928.1375971371937,1027.5720279164098,938.5202556209427,1081.5227077307902,804.0440359076728
1533060931.476,964.1131790832704,1036.891813970135,917.7702066332497,1149.9238646134604,594.861521175247
1533060931.48,1129.5949620222077,1027.5720279164098,912.5880040201513,1209.7715938403815,787.7043713168935
1533060931.484,1165.5631764520147,1027.5720279164098,917.7702066332497,1196.9458297506449,509.8832163903465
1533060931.488,1097.2147280158576,1050.8738790686577,907.405801407053,1167.0219651371845,372.60593600210376
1533060931.492,985.6926342379006,1064.8559441671803,839.9946903661751,1094.3484718205268,670.040043509963
1533060931.496,906.5507744662937,1064.8559441671803,808.8908554199352,1072.9780348628155,356.2662714113245
1533060931.5,1090.0166646201344,1055.5361581134553,762.2191740991005,1098.6295630422887,271.2879666264239
1533060931.504,1197.9434104583647,1041.5540930149325,668.886430725081,1111.4465723442509,833.4634647796411
1533060931.5070002,1122.3968986264845,1025.243274411946,632.589773898093,1145.6515281794732,856.3430115110149
1533060931.5110002,1032.4616275194273,1015.9234883582209,679.2614552189276,1137.0981005237238,862.876199811138
1533060931.515,920.9395337414703,1025.243274411946,751.844149605254,1055.8799343390917,875.9559640923271
1533060931.519,1057.6437981300542,1020.5809953671485,757.0369714860021,1038.7818338153677,996.8868860493192
1533060931.5229998,1176.3565877874646,1011.2612093134234,731.1047198852108,1094.3484718205268,748.4851599947405
1533060931.5270002,1090.0166646201344,1025.243274411946,762.2191740991005,1124.2723364339874,558.9089040031556
1533060931.5310001,1028.8662795797006,1036.891813970135,684.4436578320259,1077.250371296803,382.4124122927598
1533060931.535,949.7170522918238,1048.5451255641938,715.5581120459157,1030.2284061596185,794.2442534574881
1533060931.539,1050.445734734331,1041.5540930149325,788.1408064322421,1051.5988431173298,1532.9162433211009
1533060931.543,1172.761239847738,1027.5720279164098,741.4797443790573,1094.3484718205268,866.149487801671
1533060931.5470002,1100.8100759555844,1027.5720279164098,845.1875122469232,1090.0761353865396,728.8722074134282
1533060931.55,989.2953496938973,1004.270176764162,876.2913471931632,1034.500742593606,1032.8395032214105
1533060931.554,899.3600785868402,1013.594734853757,736.297541765959,1008.8579692019073,1157.0437131689357
1533060931.5579998,1043.2550388548775,1029.9007814208737,715.5581120459157,1081.5227077307902,1045.9125736621284
1533060931.562,1208.736821793815,1015.9234883582209,793.3336283129903,1115.7276635660126,689.6529960912752
1533060931.566,1143.9837212973846,1011.2612093134234,772.594198592947,1090.0761353865396,683.1131139506807
1533060931.57,1046.8503867946042,1008.9324558089595,710.3652901651675,1064.4246072070664,885.7557465425118
1533060931.574,949.7170522918238,987.9593581611755,648.1470010050379,1043.0541702493551,735.4053957135513
1533060931.5779998,1021.6682161839774,969.3197860537251,700.0008849389708,1111.4465723442509,751.751754144802
1533060931.582,1176.3565877874646,999.6126697552344,808.8908554199352,1137.0981005237238,938.0547221458539
1533060931.586,1179.9519357271913,1032.2343069612073,876.2913471931632,1171.2943015711717,777.8978950262374
1533060931.59,1097.2147280158576,1027.5720279164098,902.2235987939546,1214.043930274369,1075.3320025340965
1533060931.593,960.5104636272738,1011.2612093134234,912.5880040201513,1167.0219651371845,928.2482458551978
1533060931.5970001,982.0972862981739,1011.2612093134234,860.7341200862184,1162.749628703197,820.3903943389234
1533060931.601,1147.5790692371113,1011.2612093134234,845.1875122469232,1196.9458297506449,1130.8975722875002
1533060931.605,1143.9837212973846,1006.6037023044956,803.698033539187,1179.847729226921,741.945277854146
1533060931.609,1075.6279053449575,1015.9234883582209,720.7403146590141,1179.847729226921,918.4417695645417
1533060931.613,956.9151156875472,1013.594734853757,679.2614552189276,1137.0981005237238,1104.7447375655936
1533060931.617,920.9395337414703,1008.9324558089595,653.3292036181361,1085.8037989525521,813.8505121983288
1533060931.621,1143.9837212973846,1036.891813970135,637.7719765111913,1167.0219651371845,751.751754144802
1533060931.625,1187.1499991229148,1050.8738790686577,622.2147494042464,1248.2401313218165,1058.985644102846
1533060931.629,1072.032557405231,1048.5451255641938,549.6214357502702,1248.2401313218165,1163.5769014690588
1533060931.633,960.5104636272738,1046.2116000238602,466.6637168700973,1158.468537481435,1130.8975722875002
1533060931.6360002,960.5104636272738,1034.5630604656712,466.6637168700973,1149.9238646134604,895.5622228331679
1533060931.64,1154.7697651165647,1050.8738790686577,549.6214357502702,1184.1200656609083,804.0440359076728
1533060931.644,1201.5387583980914,1069.513451176108,642.9647983919394,1175.5753927929336,794.2442534574881
1533060931.6479998,1140.3810058413878,1069.513451176108,700.0008849389708,1214.043930274369,634.0874263378715
1533060931.6520002,1021.6682161839774,1071.8469767164418,648.1470010050379,1201.2181661846323,895.5622228331679
1533060931.6560001,928.1375971371937,1067.1846976716442,648.1470010050379,1158.468537481435,1065.5255262434405
1533060931.66,1125.9922465662112,1067.1846976716442,725.9225172721124,1171.2943015711717,1006.6933623399752
1533060931.664,1233.9189924044415,1067.1846976716442,684.4436578320259,1188.3924020948957,918.4417695645417
1533060931.668,1086.4213166804077,1064.8559441671803,632.589773898093,1154.1962010474479,813.8505121983288
1533060931.6720002,1000.0813935130774,1067.1846976716442,622.2147494042464,1162.749628703197,941.3213162959155
1533060931.676,942.5263564123704,1069.513451176108,606.6681415649514,1141.3704369577113,696.1861843913983
1533060931.679,1064.8344940095076,1074.1757302209055,720.7403146590141,1132.8257640897366,787.7043713168935
1533060931.6829998,1201.5387583980914,1081.1667627701668,798.5158309260886,1201.2181661846323,1078.598596684158
1533060931.687,1172.761239847738,1090.486548823892,736.297541765959,1252.5212225435785,794.2442534574881
1533060931.691,1075.6279053449575,1076.5044837253693,653.3292036181361,1239.6954584538419,650.4270909286507
1533060931.695,956.9151156875472,1055.5361581134553,632.589773898093,1171.2943015711717,549.1024277124994
1533060931.699,1043.2550388548775,1057.864911617919,679.2614552189276,1098.6295630422887,568.7153802938117
1533060931.7029998,1118.8015506867578,1053.2026325731215,710.3652901651675,1094.3484718205268,879.2225582423887
1533060931.707,1082.825968740681,1050.8738790686577,720.7403146590141,1132.8257640897366,941.3213162959155
1533060931.711,1003.6841089690739,1041.5540930149325,720.7403146590141,1115.7276635660126,980.5472214585399
1533060931.715,895.7573631308436,1039.2253395104688,746.6619469921557,1081.5227077307902,1310.6606581479575
1533060931.7189999,1003.6841089690739,1060.1936651223828,689.6258604451243,1077.250371296803,996.8868860493192
1533060931.7220001,1197.9434104583647,1069.513451176108,668.886430725081,1141.3704369577113,539.3026452623149
1533060931.726,1143.9837212973846,1069.513451176108,736.297541765959,1137.0981005237238,882.4891523924503
1533060931.73,1028.8662795797006,1083.4955162746307,767.4013767121988,1107.1742359102634,712.532542822649
1533060931.734,960.5104636272738,1071.8469767164418,798.5158309260886,1111.4465723442509,630.82083218781
1533060931.738,1050.445734734331,1062.5224186268467,850.3697148600216,1102.9018994762762,856.3430115110149
1533060931.742,1215.927517673268,1083.4955162746307,871.1091445800648,1090.0761353865396,1157.0437131689357
1533060931.746,1194.348062518638,1090.486548823892,782.9586038191437,1090.0761353865396,1362.9529399108283
1533060931.75,1104.412791411581,1088.1530232835582,731.1047198852108,1098.6295630422887,745.2118720042075
1533060931.754,960.5104636272738,1050.8738790686577,777.7764012060454,1034.500742593606,598.1348091657801
1533060931.758,1003.6841089690739,1020.5809953671485,798.5158309260886,1043.0541702493551,853.0764173609533
1533060931.7610002,1161.967828512288,1020.5809953671485,814.0730580330335,1124.2723364339874,728.8722074134282
1533060931.765,1133.1903099619344,1032.2343069612073,850.3697148600216,1171.2943015711717,607.9412854564362
1533060931.769,1064.8344940095076,1029.9007814208737,865.9269419669665,1175.5753927929336,712.532542822649
1533060931.7729998,971.3038749627239,1020.5809953671485,886.6663716870097,1145.6515281794732,797.5108476075496
1533060931.7770002,1010.8748048485273,1034.5630604656712,860.7341200862184,1149.9238646134604,719.0657311227721
1533060931.7810001,1212.3321697335416,1060.1936651223828,891.8485743001081,1243.9677948878293,660.2335672193069
1533060931.785,1205.1341063378181,1069.513451176108,928.1452311270962,1252.5212225435785,853.0764173609533
1533060931.789,1061.2391460697809,1048.5451255641938,845.1875122469232,1145.6515281794732,1013.2265506400984
1533060931.793,949.7170522918238,1034.5630604656712,834.8124877530768,1111.4465723442509,1163.5769014690588
1533060931.7970002,971.3038749627239,1048.5451255641938,912.5880040201513,1128.5534276557491,1150.5038310283412
1533060931.801,1183.554651183188,1055.5361581134553,897.0307769132064,1209.7715938403815,1111.284619706188
1533060931.804,1179.9519357271913,1046.2116000238602,891.8485743001081,1218.3162667083561,882.4891523924503
1533060931.8079998,1046.8503867946042,1043.8828465193963,902.2235987939546,1115.7276635660126,624.2809500472154
1533060931.812,949.7170522918238,1034.5630604656712,891.8485743001081,1072.9780348628155,889.0290345330448
1533060931.816,928.1375971371937,1020.5809953671485,922.9630285139979,1055.8799343390917,751.751754144802
1533060931.82,1133.1903099619344,1025.243274411946,922.9630285139979,1072.9780348628155,807.3173238982057
1533060931.824,1154.7697651165647,1039.2253395104688,886.6663716870097,1081.5227077307902,983.8138156086014
1533060931.8279998,992.890697633624,1039.2253395104688,897.0307769132064,1068.7056984288283,1032.8395032214105
1533060931.832,895.7573631308436,1027.5720279164098,860.7341200862184,1030.2284061596185,1258.368376385087
1533060931.836,856.1864332450401,1004.270176764162,808.8908554199352,978.9341045884468,1212.6092829223394
1533060931.84,1036.056975459154,999.6126697552344,798.5158309260886,1064.4246072070664,895.5622228331679
1533060931.8439999,1100.8100759555844,1022.9145209074821,876.2913471931632,1128.5534276557491,921.7150575550746
1533060931.8470001,1000.0813935130774,1041.5540930149325,907.405801407053,1107.1742359102634,970.7407451678838
1533060931.851,910.1461224060204,1050.8738790686577,793.3336283129903,1068.7056984288283,1049.1858616526613
1533060931.855,848.9957373655867,1043.8828465193963,788.1408064322421,1034.500742593606,1264.9015646852101
1533060931.859,1003.6841089690739,1025.243274411946,834.8124877530768,1077.250371296803,1179.9232599003094
1533060931.863,1147.5790692371113,1018.2522418626846,834.8124877530768,1175.5753927929336,820.3903943389234
1533060931.867,1086.4213166804077,1025.243274411946,798.5158309260886,1196.9458297506449,434.711387896102
1533060931.871,960.5104636272738,1034.5630604656712,705.1830875520692,1072.9780348628155,274.55456077648546
1533060931.875,859.7817811847668,1039.2253395104688,663.7042281119827,1000.304541546158,339.91991298007383
1533060931.879,1010.8748048485273,1041.5540930149325,674.0686333381794,1047.3265066833424,826.9235826390465
1533060931.883,1143.9837212973846,1020.5809953671485,668.886430725081,1115.7276635660126,1019.766432780693
1533060931.887,1036.056975459154,1001.9414232596981,622.2147494042464,1111.4465723442509,516.423098530941
1533060931.89,956.9151156875472,1004.270176764162,689.6258604451243,1051.5988431173298,571.9819744438732
1533060931.894,924.534881681197,1018.2522418626846,850.3697148600216,1047.3265066833424,634.0874263378715
1533060931.8979998,1025.263564123704,1004.270176764162,871.1091445800648,1077.250371296803,715.7991369727106
1533060931.9020002,1169.1658919080112,999.6126697552344,886.6663716870097,1094.3484718205268,768.0914187355812
1533060931.9060001,1115.1988352307612,1015.9234883582209,974.8169124479308,1132.8257640897366,647.1604967785892
1533060931.91,1010.8748048485273,1001.9414232596981,1016.2957718880173,1111.4465723442509,666.7734493599014
1533060931.914,920.9395337414703,973.9820650985226,1011.113569274919,1030.2284061596185,660.2335672193069
1533060931.918,989.2953496938973,978.6395721074504,943.702458234041,1034.500742593606,506.6166222402849
1533060931.9220002,1133.1903099619344,994.9503907104369,907.405801407053,1081.5227077307902,875.9559640923271
1533060931.926,1108.0081393513078,1001.9414232596981,803.698033539187,1077.250371296803,1228.9489475131186
1533060931.93,1036.056975459154,1001.9414232596981,663.7042281119827,1072.9780348628155,755.0183482948636
1533060931.9329998,902.955426526567,987.9593581611755,632.589773898093,1004.5768779801454,892.2956286831063
1533060931.937,920.9395337414703,976.3108186029865,689.6258604451243,957.554912842961,1130.8975722875002
1533060931.941,1075.6279053449575,976.3108186029865,746.6619469921557,1004.5768779801454,1359.6863457607667
1533060931.945,1025.263564123704,978.6395721074504,757.0369714860021,1017.402642069882,1575.4087426337871
1533060931.949,964.1131790832704,987.9593581611755,700.0008849389708,1034.500742593606,1392.3723687827967
1533060931.9529998,874.1779079762134,990.2928837015091,622.2147494042464,991.7511138904089,1222.409065372524
1533060931.957,899.3600785868402,987.9593581611755,632.589773898093,974.653013366685,761.5582304354581
1533060931.961,1072.032557405231,983.3018511522479,705.1830875520692,1034.500742593606,879.2225582423887
1533060931.965,1057.6437981300542,976.3108186029865,741.4797443790573,1068.7056984288283,738.6786837040844
1533060931.9689999,1007.2794569088006,1001.9414232596981,705.1830875520692,1077.250371296803,565.4487861437501
1533060931.9729998,942.5263564123704,1020.5809953671485,637.7719765111913,1068.7056984288283,382.4124122927598
1533060931.976,942.5263564123704,1001.9414232596981,648.1470010050379,1064.4246072070664,274.55456077648546
1533060931.98,1100.8100759555844,985.6306046567116,684.4436578320259,1102.9018994762762,987.080409758663
1533060931.984,1143.9837212973846,992.621637205973,658.5114062312346,1141.3704369577113,1212.6092829223394
1533060931.988,1075.6279053449575,990.2928837015091,627.4075712849946,1141.3704369577113,1039.3793853620052
1533060931.992,996.4860455733507,1004.270176764162,606.6681415649514,1149.9238646134604,1258.368376385087
1533060931.996,978.5019383584472,1018.2522418626846,601.4753196842032,1141.3704369577113,1091.671667124876
1533060932.0,1140.3810058413878,1020.5809953671485,637.7719765111913,1128.5534276557491,804.0440359076728
1533060932.004,1158.3724805725612,1022.9145209074821,606.6681415649514,1141.3704369577113,987.080409758663
1533060932.008,1028.8662795797006,1008.9324558089595,575.5536873510616,1102.9018994762762,1098.2115492654705
1533060932.012,920.9395337414703,999.6126697552344,575.5536873510616,1034.500742593606,1003.4267681899137
1533060932.015,888.5666672513902,992.621637205973,570.3714847379632,1008.8579692019073,699.4527785414599
1533060932.019,1014.477520304524,994.9503907104369,508.14257631018376,1004.5768779801454,594.861521175247
1533060932.0229998,1068.4372094655043,1001.9414232596981,585.9180925772583,1055.8799343390917,673.3066376600245
1533060932.0270002,1014.477520304524,997.2839162507705,720.7403146590141,1102.9018994762762,758.2849424449252
1533060932.0310001,913.7488378620169,990.2928837015091,700.0008849389708,1051.5988431173298,826.9235826390465
1533060932.035,856.1864332450401,978.6395721074504,725.9225172721124,1038.7818338153677,705.9926606820544
1533060932.039,1054.0484501903275,976.3108186029865,751.844149605254,1107.1742359102634,555.642309853094
1533060932.043,1169.1658919080112,992.621637205973,788.1408064322421,1145.6515281794732,840.0033469202356
1533060932.0470002,1075.6279053449575,1011.2612093134234,819.2552606461319,1107.1742359102634,1016.4998386306314
1533060932.051,996.4860455733507,1027.5720279164098,824.4374632592302,1043.0541702493551,764.8248245855197
1533060932.055,906.5507744662937,1025.243274411946,824.4374632592302,996.0322051121707,594.861521175247
1533060932.0579998,1007.2794569088006,1015.9234883582209,793.3336283129903,978.9341045884468,755.0183482948636
1533060932.062,1122.3968986264845,1008.9324558089595,808.8908554199352,961.8360040647229,755.0183482948636
1533060932.066,1028.8662795797006,994.9503907104369,907.405801407053,978.9341045884468,640.6206146379947
1533060932.07,946.1217043520971,987.9593581611755,985.1813176741275,1004.5768779801454,849.8031293704203
1533060932.074,899.3600785868402,1001.9414232596981,985.1813176741275,983.2064410224341,836.7300589297026
1533060932.0779998,1000.0813935130774,1004.270176764162,943.702458234041,987.4787774564214,875.9559640923271
1533060932.082,1118.8015506867578,990.2928837015091,928.1452311270962,1013.1303056358946,892.2956286831063
1533060932.086,1086.4213166804077,983.3018511522479,943.702458234041,1051.5988431173298,575.2552624344063
1533060932.09,1018.0728682442507,980.973097647784,933.3274337401946,1038.7818338153677,709.259254832116
1533060932.0939999,928.1375971371937,987.9593581611755,948.8846608471395,1013.1303056358946,964.2008630272892
1533060932.0979998,989.2953496938973,976.3108186029865,985.1813176741275,1025.956069725631,702.7260665319928
1533060932.101,1108.0081393513078,957.6712464955361,1016.2957718880173,1021.6749785038693,764.8248245855197
1533060932.105,1032.4616275194273,950.6802139462749,943.702458234041,1013.1303056358946,810.5839180482673
1533060932.109,942.5263564123704,962.3287535044639,865.9269419669665,1038.7818338153677,836.7300589297026
1533060932.113,870.5751925202168,978.6395721074504,824.4374632592302,1021.6749785038693,879.2225582423887
1533060932.117,949.7170522918238,971.648539558189,762.2191740991005,996.0322051121707,336.65331883001227
1533060932.121,1115.1988352307612,964.6622790447975,736.297541765959,1043.0541702493551,614.4744737565593
1533060932.125,1050.445734734331,969.3197860537251,731.1047198852108,1000.304541546158,1284.5145172665223
1533060932.129,992.890697633624,969.3197860537251,767.4013767121988,983.2064410224341,810.5839180482673
1533060932.133,874.1779079762134,971.648539558189,798.5158309260886,953.2825764089737,790.970965466955
1533060932.137,874.1779079762134,994.9503907104369,865.9269419669665,923.3587117955132,1045.9125736621284
1533060932.141,1125.9922465662112,1006.6037023044956,917.7702066332497,1017.402642069882,565.4487861437501
1533060932.144,1161.967828512288,1008.9324558089595,985.1813176741275,1081.5227077307902,437.97798204616356
1533060932.1479998,1057.6437981300542,1006.6037023044956,1026.660177114214,1111.4465723442509,562.1821919936885
1533060932.1520002,949.7170522918238,997.2839162507705,928.1452311270962,1072.9780348628155,843.2699410702971
1533060932.1560001,960.5104636272738,997.2839162507705,824.4374632592302,1081.5227077307902,833.4634647796411
1533060932.16,1161.967828512288,1011.2612093134234,829.6302851399784,1162.749628703197,585.0617387250624
1533060932.164,1161.967828512288,1020.5809953671485,824.4374632592302,1205.499257406394,532.7627631217202
1533060932.168,1054.0484501903275,1011.2612093134234,798.5158309260886,1192.6734933166576,728.8722074134282
1533060932.1720002,974.8992229024506,1004.270176764162,793.3336283129903,1154.1962010474479,1003.4267681899137
1533060932.176,913.7488378620169,997.2839162507705,788.1408064322421,1102.9018994762762,947.86119843651
1533060932.18,1079.2306208009543,1006.6037023044956,731.1047198852108,1137.0981005237238,983.8138156086014
1533060932.184,1133.1903099619344,1025.243274411946,715.5581120459157,1201.2181661846323,1062.258932093379
1533060932.187,1007.2794569088006,1029.9007814208737,762.2191740991005,1149.9238646134604,1392.3723687827967
1533060932.191,920.9395337414703,1018.2522418626846,772.594198592947,1064.4246072070664,1323.7337285886754
1533060932.195,902.955426526567,1004.270176764162,788.1408064322421,1043.0541702493551,980.5472214585399
1533060932.199,1050.445734734331,992.621637205973,814.0730580330335,1085.8037989525521,830.1968706295795
1533060932.2029998,1104.412791411581,990.2928837015091,824.4374632592302,1132.8257640897366,656.9669730692453
1533060932.207,1032.4616275194273,1001.9414232596981,757.0369714860021,1098.6295630422887,1058.985644102846
1533060932.211,967.7085270229971,1011.2612093134234,689.6258604451243,1047.3265066833424,1055.7190499527844
1533060932.215,899.3600785868402,1001.9414232596981,684.4436578320259,1025.956069725631,856.3430115110149
1533060932.2189999,1039.6596909151508,985.6306046567116,637.7719765111913,1030.2284061596185,869.4160819517325
1533060932.2229998,1122.3968986264845,983.3018511522479,575.5536873510616,1043.0541702493551,836.7300589297026
1533060932.2270002,1025.263564123704,990.2928837015091,601.4753196842032,1085.8037989525521,1003.4267681899137
1533060932.23,971.3038749627239,994.9503907104369,617.0325467911481,1098.6295630422887,1029.5729090713492
1533060932.234,906.5507744662937,990.2928837015091,554.8142576310183,1055.8799343390917,741.945277854146
1533060932.238,1046.8503867946042,987.9593581611755,565.178662857215,1115.7276635660126,741.945277854146
1533060932.242,1208.736821793815,997.2839162507705,549.6214357502702,1158.468537481435,1009.9599564900368
1533060932.246,1151.174417176838,1008.9324558089595,559.9964602441167,1141.3704369577113,993.6202918992576
1533060932.25,1046.8503867946042,1020.5809953671485,663.7042281119827,1141.3704369577113,954.3943867366331
1533060932.254,938.9310084726437,1032.2343069612073,642.9647983919394,1120.0,830.1968706295795
1533060932.258,1039.6596909151508,1046.2116000238602,591.1109144580065,1145.6515281794732,853.0764173609533
1533060932.262,1190.7453470626415,1060.1936651223828,689.6258604451243,1179.847729226921,1045.9125736621284
1533060932.266,1136.7856579016611,1081.1667627701668,762.2191740991005,1149.9238646134604,1317.2005402885522
1533060932.269,1072.032557405231,1078.8332372298332,689.6258604451243,1124.2723364339874,830.1968706295795
1533060932.2729998,953.3197677478205,1048.5451255641938,611.8503441780497,1068.7056984288283,287.62763121720315
1533060932.2770002,982.0972862981739,1034.5630604656712,575.5536873510616,1051.5988431173298,395.48548273347757
1533060932.2810001,1161.967828512288,1043.8828465193963,627.4075712849946,1081.5227077307902,741.945277854146
1533060932.285,1125.9922465662112,1046.2116000238602,668.886430725081,1098.6295630422887,826.9235826390465
1533060932.289,996.4860455733507,1013.594734853757,653.3292036181361,1102.9018994762762,549.1024277124994
1533060932.293,866.9798445804901,983.3018511522479,658.5114062312346,1043.0541702493551,996.8868860493192
1533060932.2970002,917.3441858017436,994.9503907104369,679.2614552189276,1043.0541702493551,1245.2886121038978
1533060932.301,1104.412791411581,1006.6037023044956,648.1470010050379,1098.6295630422887,957.6676747271662
1533060932.305,1050.445734734331,1013.594734853757,559.9964602441167,1064.4246072070664,1108.0180255561265
1533060932.309,938.9310084726437,1025.243274411946,549.6214357502702,1034.500742593606,1470.817485267574
1533060932.312,866.9798445804901,1032.2343069612073,648.1470010050379,1060.152270773079,1411.9853213641088
1533060932.316,920.9395337414703,1039.2253395104688,793.3336283129903,1077.250371296803,1016.4998386306314
1533060932.32,1154.7697651165647,1036.891813970135,793.3336283129903,1115.7276635660126,941.3213162959155
1533060932.324,1187.1499991229148,1050.8738790686577,736.297541765959,1145.6515281794732,823.656988488985
1533060932.3279998,1079.2306208009543,1064.8559441671803,793.3336283129903,1167.0219651371845,898.8355108237009
1533060932.332,992.890697633624,1053.2026325731215,772.594198592947,1124.2723364339874,846.5365352203587
1533060932.336,978.5019383584472,1029.9007814208737,710.3652901651675,1081.5227077307902,843.2699410702971
1533060932.34,1172.761239847738,1029.9007814208737,668.886430725081,1196.9458297506449,1016.4998386306314
1533060932.3439999,1208.736821793815,1043.8828465193963,663.7042281119827,1248.2401313218165,1016.4998386306314
1533060932.3479998,1082.825968740681,1053.2026325731215,642.9647983919394,1196.9458297506449,892.2956286831063
1533060932.3520002,946.1217043520971,1067.1846976716442,570.3714847379632,1162.749628703197,745.2118720042075
1533060932.355,870.5751925202168,1041.5540930149325,549.6214357502702,1090.0761353865396,709.259254832116
1533060932.359,1050.445734734331,1015.9234883582209,632.589773898093,1120.0,1248.5619000944307
1533060932.363,1104.412791411581,1036.891813970135,720.7403146590141,1196.9458297506449,1307.3940639978962
1533060932.367,985.6926342379006,1039.2253395104688,751.844149605254,1184.1200656609083,503.35002809022336
1533060932.371,931.7329450769204,1029.9007814208737,679.2614552189276,1128.5534276557491,536.0293572717818
1533060932.375,913.7488378620169,1036.891813970135,648.1470010050379,1115.7276635660126,1137.4307605876234
1533060932.379,1075.6279053449575,1046.2116000238602,648.1470010050379,1145.6515281794732,1045.9125736621284
1533060932.383,1158.3724805725612,1050.8738790686577,663.7042281119827,1179.847729226921,826.9235826390465
1533060932.387,1072.032557405231,1057.864911617919,658.5114062312346,1171.2943015711717,977.2739334680069
1533060932.391,1003.6841089690739,1057.864911617919,513.3353981909319,1120.0,640.6206146379947
1533060932.395,931.7329450769204,1062.5224186268467,461.48151425699893,1064.4246072070664,418.3650294648513
1533060932.3979998,1075.6279053449575,1057.864911617919,419.99203554926265,1085.8037989525521,774.6313008761758
1533060932.4020002,1237.5143403441682,1034.5630604656712,435.54926265620753,1158.468537481435,601.4014033158417
1533060932.4060001,1158.3724805725612,1036.891813970135,565.178662857215,1158.468537481435,542.5692394123764
1533060932.41,1021.6682161839774,1041.5540930149325,591.1109144580065,1072.9780348628155,643.8939026285276
1533060932.414,946.1217043520971,1027.5720279164098,642.9647983919394,983.2064410224341,964.2008630272892
1533060932.418,1136.7856579016611,1020.5809953671485,720.7403146590141,1034.500742593606,872.6826761017941
1533060932.4220002,1266.2918588945217,1008.9324558089595,653.3292036181361,1068.7056984288283,532.7627631217202
1533060932.426,1165.5631764520147,1015.9234883582209,580.7358899641599,1038.7818338153677,1045.9125736621284
1533060932.43,1090.0166646201344,1039.2253395104688,601.4753196842032,1013.1303056358946,1225.682353363057
1533060932.434,956.9151156875472,1036.891813970135,653.3292036181361,966.1083404987103,885.7557465425118
1533060932.438,1036.056975459154,1032.2343069612073,679.2614552189276,1004.5768779801454,467.39071707766044
1533060932.441,1183.554651183188,1053.2026325731215,715.5581120459157,1038.7818338153677,405.29195902413363
1533060932.445,1104.412791411581,1067.1846976716442,829.6302851399784,1068.7056984288283,875.9559640923271
1533060932.449,1000.0813935130774,1057.864911617919,782.9586038191437,1047.3265066833424,1297.58758770724
1533060932.4529998,884.9639517953935,1071.8469767164418,751.844149605254,961.8360040647229,1212.6092829223394
1533060932.457,967.7085270229971,1088.1530232835582,819.2552606461319,974.653013366685,928.2482458551978
1533060932.461,1161.967828512288,1083.4955162746307,803.698033539187,1060.152270773079,908.6352932738855
1533060932.465,1118.8015506867578,1078.8332372298332,928.1452311270962,1064.4246072070664,408.55855317419514
1533060932.4689999,1014.477520304524,1085.8242697790945,1031.8529989949623,1025.956069725631,673.3066376600245
1533060932.4729998,924.534881681197,1064.8559441671803,938.5202556209427,1004.5768779801454,1085.1384788247528
1533060932.4770002,1003.6841089690739,1053.2026325731215,912.5880040201513,1034.500742593606,519.6896926810026
1533060932.481,1151.174417176838,1064.8559441671803,855.5519174731199,1064.4246072070664,594.861521175247
1533060932.484,1097.2147280158576,1057.864911617919,725.9225172721124,1038.7818338153677,526.2228809811257
1533060932.488,1021.6682161839774,1043.8828465193963,658.5114062312346,1030.2284061596185,735.4053957135513
1533060932.492,931.7329450769204,1039.2253395104688,637.7719765111913,1030.2284061596185,882.4891523924503
1533060932.496,964.1131790832704,1048.5451255641938,642.9647983919394,1064.4246072070664,575.2552624344063
1533060932.5,1133.1903099619344,1060.1936651223828,694.8080630582226,1094.3484718205268,804.0440359076728
1533060932.504,1147.5790692371113,1074.1757302209055,777.7764012060454,1111.4465723442509,781.164489176299
1533060932.508,1068.4372094655043,1071.8469767164418,871.1091445800648,1111.4465723442509,702.7260665319928
1533060932.512,960.5104636272738,1088.1530232835582,860.7341200862184,1077.250371296803,1333.5402048793314
1533060932.516,913.7488378620169,1283.8828465193963,788.1408064322421,1064.4246072070664,702.7260665319928
1533060932.52,1064.8344940095076,1502.9145209074823,829.6302851399784,1081.5227077307902,388.9522944333544
1533060932.5229998,1104.412791411581,1591.4548744358062,855.5519174731199,1085.8037989525521,931.5148400052593
1533060932.5270002,992.890697633624,1633.3962976955042,767.4013767121988,1068.7056984288283,905.368699123824
1533060932.5310001,902.955426526567,1666.0179349014772,668.886430725081,1055.8799343390917,846.5365352203587
1533060932.535,906.5507744662937,1680.0,684.4436578320259,1060.152270773079,490.27026380903425
1533060932.539,1075.6279053449575,1673.0089674507387,720.7403146590141,1064.4246072070664,245.13513190451707
1533060932.543,1136.7856579016611,1656.6981488477522,684.4436578320259,1085.8037989525521,719.0657311227721
1533060932.5470002,1054.0484501903275,1631.0675441910405,700.0008849389708,1115.7276635660126,787.7043713168935
1533060932.551,1007.2794569088006,1619.4190046328515,751.844149605254,1111.4465723442509,689.6529960912752
1533060932.555,1007.2794569088006,1600.7746604895312,824.4374632592302,1115.7276635660126,748.4851599947405
1533060932.559,1158.3724805725612,1575.1440558328197,860.7341200862184,1179.847729226921,817.1238001888619
1533060932.563,1230.316276948445,1551.8422046805717,938.5202556209427,1231.1420307980927,794.2442534574881
1533060932.566,1129.5949620222077,1533.2026325731215,1037.0352016080606,1226.8696943641053,1209.3359949318065
1533060932.57,1021.6682161839774,1528.5451255641938,1011.113569274919,1205.499257406394,1101.478143415532
1533060932.574,974.8992229024506,1498.2522418626847,985.1813176741275,1167.0219651371845,846.5365352203587
1533060932.5779998,1129.5949620222077,1477.2791442149007,938.5202556209427,1214.043930274369,1049.1858616526613
1533060932.582,1194.348062518638,1481.9414232596982,933.3274337401946,1252.5212225435785,974.0073393179454
1533060932.586,1115.1988352307612,1484.270176764162,1016.2957718880173,1248.2401313218165,817.1238001888619
1533060932.59,1050.445734734331,1491.2612093134233,943.702458234041,1248.2401313218165,817.1238001888619
1533060932.5939999,931.7329450769204,1498.2522418626847,907.405801407053,1201.2181661846323,797.5108476075496
1533060932.5979998,1021.6682161839774,1465.6306046567117,990.3635202872259,1154.1962010474479,503.35002809022336
1533060932.6020002,1172.761239847738,1437.6712464955363,1026.660177114214,1188.3924020948957,804.0440359076728
1533060932.606,1125.9922465662112,1426.0179349014772,1037.0352016080606,1222.597357930118,967.4674571773508
1533060932.609,1032.4616275194273,1388.7387906865767,938.5202556209427,1201.2181661846323,624.2809500472154
1533060932.613,956.9151156875472,1379.4190046328515,897.0307769132064,1179.847729226921,902.1021049737624
1533060932.617,1086.4213166804077,1377.0854790925177,839.9946903661751,1171.2943015711717,1137.4307605876234
1533060932.621,1219.5302331292648,1363.108186029865,814.0730580330335,1167.0219651371845,1062.258932093379
1533060932.625,1122.3968986264845,1360.7746604895312,871.1091445800648,1137.0981005237238,797.5108476075496
1533060932.629,1018.0728682442507,1332.8153023283558,860.7341200862184,1077.250371296803,905.368699123824
1533060932.633,913.7488378620169,1286.2116000238602,798.5158309260886,1051.5988431173298,954.3943867366331
1533060932.637,1000.0813935130774,1288.5451255641938,824.4374632592302,1098.6295630422887,781.164489176299
1533060932.641,1176.3565877874646,1293.2026325731215,891.8485743001081,1120.0,951.1277925865716
1533060932.645,1115.1988352307612,1272.2343069612073,850.3697148600216,1077.250371296803,1055.7190499527844
1533060932.649,1021.6682161839774,1262.9145209074823,793.3336283129903,1094.3484718205268,1150.5038310283412
1533060932.6520002,931.7329450769204,1234.9503907104367,772.594198592947,1081.5227077307902,1006.6933623399752
1533060932.6560001,996.4860455733507,1211.648539558189,782.9586038191437,1098.6295630422887,519.6896926810026
1533060932.66,1197.9434104583647,1209.3197860537252,808.8908554199352,1184.1200656609083,522.9562868310642
1533060932.664,1158.3724805725612,1202.3287535044637,855.5519174731199,1196.9458297506449,921.7150575550746
1533060932.668,1036.056975459154,1197.6712464955363,793.3336283129903,1184.1200656609083,1147.2372368782796
1533060932.6720002,953.3197677478205,1186.0179349014772,674.0686333381794,1137.0981005237238,960.9342688772277
1533060932.676,982.0972862981739,1160.3873302447657,689.6258604451243,1072.9780348628155,732.1388015634898
1533060932.68,1187.1499991229148,1153.3962976955042,689.6258604451243,1098.6295630422887,588.3283328751239
1533060932.684,1176.3565877874646,1151.0675441910405,648.1470010050379,1081.5227077307902,640.6206146379947
1533060932.688,1028.8662795797006,1125.4369395343288,617.0325467911481,1025.956069725631,898.8355108237009
1533060932.6920002,877.7732559159401,1102.135088382081,622.2147494042464,1000.304541546158,758.2849424449252
1533060932.695,866.9798445804901,1109.1261209313423,632.589773898093,961.8360040647229,647.1604967785892
1533060932.699,1125.9922465662112,1130.0992185791263,549.6214357502702,1017.402642069882,699.4527785414599
1533060932.7029998,1183.554651183188,1141.7477581373153,596.2931170711048,1060.152270773079,882.4891523924503
1533060932.707,1057.6437981300542,1151.0675441910405,689.6258604451243,1034.500742593606,781.164489176299
1533060932.711,938.9310084726437,1160.3873302447657,689.6258604451243,1000.304541546158,974.0073393179454
1533060932.715,917.3441858017436,1155.729823235838,715.5581120459157,966.1083404987103,1160.3103073189973
1533060932.7189999,1111.6034872910345,1144.0765116417792,663.7042281119827,1034.500742593606,970.7407451678838
1533060932.7229998,1183.554651183188,1146.4100371821128,674.0686333381794,1158.468537481435,728.8722074134282
1533060932.7270002,1093.619380076131,1151.0675441910405,788.1408064322421,1201.2181661846323,526.2228809811257
1533060932.731,996.4860455733507,1141.7477581373153,767.4013767121988,1115.7276635660126,637.3540204879331
1533060932.735,982.0972862981739,1144.0765116417792,808.8908554199352,1137.0981005237238,764.8248245855197
1533060932.738,1151.174417176838,1144.0765116417792,850.3697148600216,1196.9458297506449,911.9085812644186
1533060932.742,1169.1658919080112,1127.7656930387927,819.2552606461319,1141.3704369577113,1170.1167836096533
1533060932.746,1075.6279053449575,1137.0854790925177,845.1875122469232,1154.1962010474479,1294.3209935571783
1533060932.75,1003.6841089690739,1134.756725588054,834.8124877530768,1188.3924020948957,1245.2886121038978
1533060932.754,924.534881681197,1113.7883999761398,798.5158309260886,1149.9238646134604,846.5365352203587
1533060932.758,1064.8344940095076,1104.4638418865447,855.5519174731199,1137.0981005237238,650.4270909286507
1533060932.762,1151.174417176838,1095.1440558328197,886.6663716870097,1145.6515281794732,728.8722074134282
1533060932.766,1057.6437981300542,1083.4955162746307,891.8485743001081,1107.1742359102634,679.8465198006191
1533060932.77,928.1375971371937,1069.513451176108,845.1875122469232,1030.2284061596185,699.4527785414599
1533060932.774,784.2426368691564,1055.5361581134553,819.2552606461319,953.2825764089737,921.7150575550746
1533060932.7770002,920.9395337414703,1043.8828465193963,829.6302851399784,1000.304541546158,944.5879104459771
1533060932.7810001,1104.412791411581,1046.2116000238602,798.5158309260886,1043.0541702493551,663.5001613693685
1533060932.785,1025.263564123704,1057.864911617919,782.9586038191437,1000.304541546158,774.6313008761758
1533060932.789,920.9395337414703,1055.5361581134553,710.3652901651675,970.3806769326976,817.1238001888619
1533060932.793,845.3930219095901,1055.5361581134553,575.5536873510616,949.0102399749863,441.2445761962251
1533060932.7970002,946.1217043520971,1060.1936651223828,596.2931170711048,974.653013366685,634.0874263378715
1533060932.801,1111.6034872910345,1053.2026325731215,668.886430725081,1008.8579692019073,1111.284619706188
1533060932.805,1086.4213166804077,1050.8738790686577,725.9225172721124,1034.500742593606,1179.9232599003094
1533060932.809,1007.2794569088006,1050.8738790686577,788.1408064322421,1055.8799343390917,853.0764173609533
1533060932.813,935.3282930166471,1043.8828465193963,710.3652901651675,1030.2284061596185,741.945277854146
1533060932.8170002,1018.0728682442507,1034.5630604656712,668.886430725081,1000.304541546158,784.4377771668319
1533060932.82,1172.761239847738,1027.5720279164098,720.7403146590141,1034.500742593606,787.7043713168935
1533060932.824,1165.5631764520147,1039.2253395104688,689.6258604451243,1085.8037989525521,712.532542822649
1533060932.8279998,1090.0166646201344,1053.2026325731215,601.4753196842032,1072.9780348628155,650.4270909286507
1533060932.832,924.534881681197,1050.8738790686577,513.3353981909319,1000.304541546158,836.7300589297026
1533060932.836,960.5104636272738,1069.513451176108,617.0325467911481,1017.402642069882,549.1024277124994
1533060932.84,1194.348062518638,1102.135088382081,694.8080630582226,1111.4465723442509,846.5365352203587
1533060932.8439999,1165.5631764520147,1111.4548744358062,611.8503441780497,1120.0,1461.011008976918
1533060932.8479998,1082.825968740681,1102.135088382081,591.1109144580065,1115.7276635660126,1408.7120333735759
1533060932.8520002,1007.2794569088006,1078.8332372298332,580.7358899641599,1128.5534276557491,1029.5729090713492
1533060932.856,1007.2794569088006,1067.1846976716442,689.6258604451243,1141.3704369577113,853.0764173609533
1533060932.86,1122.3968986264845,1067.1846976716442,720.7403146590141,1171.2943015711717,666.7734493599014
1533060932.863,1068.4372094655043,1062.5224186268467,642.9647983919394,1132.8257640897366,666.7734493599014
1533060932.867,985.6926342379006,1071.8469767164418,596.2931170711048,1090.0761353865396,797.5108476075496
1533060932.871,910.1461224060204,1062.5224186268467,539.2570305240735,1064.4246072070664,519.6896926810026
1533060932.875,935.3282930166471,1041.5540930149325,648.1470010050379,1025.956069725631,987.080409758663
1533060932.879,1143.9837212973846,1041.5540930149325,700.0008849389708,1064.4246072070664,1209.3359949318065
1533060932.883,1147.5790692371113,1034.5630604656712,601.4753196842032,1098.6295630422887,996.8868860493192
1533060932.887,1018.0728682442507,1029.9007814208737,617.0325467911481,1085.8037989525521,853.0764173609533
1533060932.891,935.3282930166471,1029.9007814208737,580.7358899641599,1068.7056984288283,1183.189854050371
1533060932.895,942.5263564123704,1027.5720279164098,554.8142576310183,1072.9780348628155,1258.368376385087
1533060932.899,1122.3968986264845,1039.2253395104688,575.5536873510616,1124.2723364339874,967.4674571773508
1533060932.9029999,1165.5631764520147,1048.5451255641938,575.5536873510616,1162.749628703197,777.8978950262374
1533060932.9060001,1100.8100759555844,1034.5630604656712,549.6214357502702,1145.6515281794732,892.2956286831063
1533060932.91,1021.6682161839774,1022.9145209074821,518.5176008040303,1141.3704369577113,951.1277925865716
1533060932.914,956.9151156875472,1022.9145209074821,513.3353981909319,1124.2723364339874,918.4417695645417
1533060932.918,1090.0166646201344,1018.2522418626846,477.0387413639438,1111.4465723442509,526.2228809811257
1533060932.9220002,1147.5790692371113,1008.9324558089595,477.0387413639438,1098.6295630422887,196.10944429170806
1533060932.926,1090.0166646201344,1004.270176764162,544.4392331371719,1081.5227077307902,650.4270909286507
1533060932.93,1021.6682161839774,1004.270176764162,534.0748279109752,1064.4246072070664,562.1821919936885
1533060932.934,924.534881681197,999.6126697552344,523.6998034171286,1030.2284061596185,500.07674009969037
1533060932.938,1039.6596909151508,1004.270176764162,575.5536873510616,1030.2284061596185,663.5001613693685
1533060932.9420002,1125.9922465662112,1004.270176764162,617.0325467911481,1038.7818338153677,696.1861843913983
1533060932.946,1050.445734734331,1011.2612093134234,606.6681415649514,991.7511138904089,954.3943867366331
1533060932.949,910.1461224060204,1020.5809953671485,559.9964602441167,936.1844758852498,1170.1167836096533
1533060932.9529998,780.6399214131598,1013.594734853757,497.77817108398705,897.70718361604,1101.478143415532
1533060932.957,906.5507744662937,1020.5809953671485,544.4392331371719,910.5329477057766,784.4377771668319
1533060932.961,1032.4616275194273,1032.2343069612073,601.4753196842032,983.2064410224341,895.5622228331679
1533060932.965,942.5263564123704,1043.8828465193963,601.4753196842032,987.4787774564214,761.5582304354581
1533060932.9689999,831.0042626344133,1036.891813970135,596.2931170711048,880.6090830923162,692.9195902413368
1533060932.9729998,759.0604662585297,1018.2522418626846,539.2570305240735,816.4890174314078,745.2118720042075
1533060932.9770002,881.3686038556668,1041.5540930149325,523.6998034171286,854.9663097006176,571.9819744438732
1533060932.981,1072.032557405231,1039.2253395104688,534.0748279109752,906.2606112717892,898.8355108237009
1533060932.985,1064.8344940095076,1046.2116000238602,539.2570305240735,974.653013366685,1023.0330269307545
1533060932.9889998,996.4860455733507,1055.5361581134553,554.8142576310183,978.9341045884468,813.8505121983288
1533060932.992,888.5666672513902,1048.5451255641938,554.8142576310183,949.0102399749863,532.7627631217202
1533060932.996,1007.2794569088006,1074.1757302209055,637.7719765111913,1030.2284061596185,653.6936850787123
1533060933.0,1194.348062518638,1071.8469767164418,762.2191740991005,1107.1742359102634,1117.8178080063112
1533060933.004,1125.9922465662112,1020.5809953671485,845.1875122469232,1128.5534276557491,928.2482458551978
1533060933.008,1068.4372094655043,1008.9324558089595,819.2552606461319,1188.3924020948957,1032.8395032214105
1533060933.012,1007.2794569088006,1032.2343069612073,720.7403146590141,1196.9458297506449,1405.4454392235143
1533060933.016,1068.4372094655043,1057.864911617919,798.5158309260886,1196.9458297506449,1434.8648680954827
1533060933.02,1255.4984475590718,1057.864911617919,871.1091445800648,1261.0658954115531,1304.120776007363
1533060933.024,1233.9189924044415,1041.5540930149325,855.5519174731199,1256.793558977566,866.149487801671
1533060933.0279999,1108.0081393513078,1036.891813970135,876.2913471931632,1192.6734933166576,545.835833562438
1533060933.0310001,982.0972862981739,1025.243274411946,917.7702066332497,1162.749628703197,1150.5038310283412
1533060933.035,1010.8748048485273,1036.891813970135,933.3274337401946,1154.1962010474479,1411.9853213641088
1533060933.039,1208.736821793815,1053.2026325731215,990.3635202872259,1222.597357930118,764.8248245855197
1533060933.043,1183.554651183188,1053.2026325731215,1021.4779745011157,1209.7715938403815,640.6206146379947
1533060933.0470002,1046.8503867946042,1062.5224186268467,1000.7385447810724,1115.7276635660126,719.0657311227721
1533060933.051,946.1217043520971,1067.1846976716442,985.1813176741275,1085.8037989525521,670.040043509963
1533060933.055,967.7085270229971,1071.8469767164418,985.1813176741275,1090.0761353865396,970.7407451678838
1533060933.059,1154.7697651165647,1071.8469767164418,985.1813176741275,1098.6295630422887,915.1751754144801
1533060933.063,1151.174417176838,1062.5224186268467,1037.0352016080606,1077.250371296803,820.3903943389234
1533060933.0670002,1032.4616275194273,1050.8738790686577,1109.6285152620367,1081.5227077307902,777.8978950262374
1533060933.071,949.7170522918238,1057.864911617919,1037.0352016080606,1072.9780348628155,676.5732318100861
1533060933.074,935.3282930166471,1069.513451176108,1000.7385447810724,1055.8799343390917,980.5472214585399
1533060933.0779998,1122.3968986264845,1074.1757302209055,985.1813176741275,1120.0,787.7043713168935
1533060933.082,1179.9519357271913,1064.8559441671803,871.1091445800648,1158.468537481435,866.149487801671
1533060933.086,1090.0166646201344,1050.8738790686577,808.8908554199352,1124.2723364339874,1271.4414468258046
1533060933.09,1018.0728682442507,1069.513451176108,767.4013767121988,1094.3484718205268,1062.258932093379
1533060933.0939999,989.2953496938973,1062.5224186268467,777.7764012060454,1072.9780348628155,1228.9489475131186
1533060933.0979998,1172.761239847738,1043.8828465193963,865.9269419669665,1167.0219651371845,1317.2005402885522
1533060933.1020002,1230.316276948445,1048.5451255641938,912.5880040201513,1261.0658954115531,859.6096056610764
1533060933.106,1140.3810058413878,1048.5451255641938,907.405801407053,1248.2401313218165,1055.7190499527844
1533060933.11,1075.6279053449575,1046.2116000238602,876.2913471931632,1222.597357930118,1228.9489475131186
1533060933.1139998,989.2953496938973,1039.2253395104688,855.5519174731199,1149.9238646134604,784.4377771668319
1533060933.117,1143.9837212973846,1053.2026325731215,814.0730580330335,1141.3704369577113,506.6166222402849
1533060933.121,1266.2918588945217,1074.1757302209055,720.7403146590141,1175.5753927929336,764.8248245855197
1533060933.125,1100.8100759555844,1057.864911617919,751.844149605254,1167.0219651371845,1036.106097371472
1533060933.129,931.7329450769204,1029.9007814208737,798.5158309260886,1120.0,947.86119843651
1533060933.133,848.9957373655867,1029.9007814208737,793.3336283129903,1081.5227077307902,663.5001613693685
1533060933.137,949.7170522918238,1039.2253395104688,839.9946903661751,1094.3484718205268,621.0143558971539
1533060933.141,1075.6279053449575,1060.1936651223828,834.8124877530768,1141.3704369577113,663.5001613693685
1533060933.145,996.4860455733507,1062.5224186268467,850.3697148600216,1132.8257640897366,424.9049116054459
1533060933.149,902.955426526567,1057.864911617919,808.8908554199352,1064.4246072070664,375.87922399263675
1533060933.1529999,863.3844966407634,1046.2116000238602,710.3652901651675,1047.3265066833424,467.39071707766044
1533060933.157,967.7085270229971,1027.5720279164098,788.1408064322421,1085.8037989525521,875.9559640923271
1533060933.16,1082.825968740681,1015.9234883582209,829.6302851399784,1120.0,1130.8975722875002
1533060933.164,1010.8748048485273,1006.6037023044956,736.297541765959,1072.9780348628155,741.945277854146
1533060933.168,971.3038749627239,1025.243274411946,762.2191740991005,1043.0541702493551,411.8318411647282
1533060933.1720002,953.3197677478205,1046.2116000238602,705.1830875520692,1068.7056984288283,660.2335672193069
1533060933.176,1032.4616275194273,1039.2253395104688,580.7358899641599,1107.1742359102634,954.3943867366331
1533060933.18,1194.348062518638,1034.5630604656712,575.5536873510616,1192.6734933166576,977.2739334680069
1533060933.184,1176.3565877874646,1034.5630604656712,668.886430725081,1252.5212225435785,846.5365352203587
1533060933.188,1064.8344940095076,1025.243274411946,679.2614552189276,1201.2181661846323,938.0547221458539
1533060933.1920002,967.7085270229971,1027.5720279164098,642.9647983919394,1077.250371296803,974.0073393179454
1533060933.196,1032.4616275194273,1022.9145209074821,668.886430725081,1064.4246072070664,924.9816517051362
1533060933.2,1183.554651183188,1008.9324558089595,668.886430725081,1175.5753927929336,983.8138156086014
1533060933.2029998,1133.1903099619344,999.6126697552344,684.4436578320259,1209.7715938403815,872.6826761017941
1533060933.207,1018.0728682442507,1004.270176764162,751.844149605254,1154.1962010474479,951.1277925865716
1533060933.211,931.7329450769204,1015.9234883582209,648.1470010050379,1072.9780348628155,614.4744737565593
1533060933.215,989.2953496938973,1039.2253395104688,585.9180925772583,1090.0761353865396,670.040043509963
1533060933.2189999,1194.348062518638,1057.864911617919,627.4075712849946,1158.468537481435,1212.6092829223394
1533060933.2229998,1201.5387583980914,1069.513451176108,674.0686333381794,1141.3704369577113,1147.2372368782796
1533060933.2270002,1093.619380076131,1085.8242697790945,684.4436578320259,1107.1742359102634,738.6786837040844
1533060933.231,967.7085270229971,1085.8242697790945,746.6619469921557,1047.3265066833424,614.4744737565593
1533060933.235,971.3038749627239,1078.8332372298332,829.6302851399784,1034.500742593606,1137.4307605876234
1533060933.2389998,1183.554651183188,1088.1530232835582,777.7764012060454,1098.6295630422887,1140.697354737685
1533060933.2429998,1176.3565877874646,1083.4955162746307,746.6619469921557,1077.250371296803,774.6313008761758
1533060933.246,1025.263564123704,1060.1936651223828,705.1830875520692,974.653013366685,800.7774417576112
1533060933.25,884.9639517953935,1043.8828465193963,617.0325467911481,872.0644102243415,692.9195902413368
1533060933.254,870.5751925202168,1053.2026325731215,591.1109144580065,872.0644102243415,938.0547221458539
1533060933.258,1093.619380076131,1067.1846976716442,585.9180925772583,978.9341045884468,637.3540204879331
1533060933.262,1183.554651183188,1083.4955162746307,549.6214357502702,1025.956069725631,673.3066376600245
1533060933.266,1118.8015506867578,1088.1530232835582,596.2931170711048,1055.8799343390917,1072.0587145435636
1533060933.27,1068.4372094655043,1090.486548823892,554.8142576310183,1098.6295630422887,545.835833562438
1533060933.274,1003.6841089690739,1081.1667627701668,554.8142576310183,1077.250371296803,500.07674009969037
1533060933.2779999,1104.412791411581,1036.891813970135,679.2614552189276,1077.250371296803,859.6096056610764
1533060933.282,1169.1658919080112,1020.5809953671485,663.7042281119827,1128.5534276557491,934.7881279957924
1533060933.285,1090.0166646201344,1025.243274411946,622.2147494042464,1149.9238646134604,1104.7447375655936
1533060933.289,1036.056975459154,1039.2253395104688,559.9964602441167,1128.5534276557491,856.3430115110149
1533060933.293,1032.4616275194273,1067.1846976716442,544.4392331371719,1145.6515281794732,725.6056132633666
1533060933.2970002,1179.9519357271913,1060.1936651223828,632.589773898093,1162.749628703197,676.5732318100861
1533060933.301,1187.1499991229148,1029.9007814208737,663.7042281119827,1132.8257640897366,748.4851599947405
1533060933.305,1054.0484501903275,1018.2522418626846,642.9647983919394,1094.3484718205268,1242.0220179538362
1533060933.309,967.7085270229971,999.6126697552344,637.7719765111913,1060.152270773079,794.2442534574881
1533060933.313,870.5751925202168,978.6395721074504,710.3652901651675,1008.8579692019073,575.2552624344063
1533060933.3170002,1007.2794569088006,985.6306046567116,793.3336283129903,1038.7818338153677,790.970965466955
1533060933.321,1161.967828512288,999.6126697552344,772.594198592947,1068.7056984288283,1127.6242842969673
1533060933.325,1082.825968740681,990.2928837015091,767.4013767121988,1085.8037989525521,1170.1167836096533
1533060933.3279998,992.890697633624,987.9593581611755,793.3336283129903,1072.9780348628155,810.5839180482673
1533060933.332,920.9395337414703,990.2928837015091,772.594198592947,978.9341045884468,549.1024277124994
1533060933.336,1043.2550388548775,992.621637205973,746.6619469921557,1021.6749785038693,0.0
1533060933.34,1190.7453470626415,1001.9414232596981,762.2191740991005,1098.6295630422887,670.040043509963
1533060933.3439999,1111.6034872910345,1006.6037023044956,762.2191740991005,1051.5988431173298,846.5365352203587
1533060933.3479998,1007.2794569088006,1013.594734853757,663.7042281119827,983.2064410224341,405.29195902413363
1533060933.3520002,917.3441858017436,1025.243274411946,596.2931170711048,1013.1303056358946,1081.8651908342197
1533060933.356,1036.056975459154,1013.594734853757,689.6258604451243,1094.3484718205268,1549.2626017523517
1533060933.36,1255.4984475590718,1004.270176764162,689.6258604451243,1141.3704369577113,1176.6499719097765
1533060933.3639998,1226.7209290087183,1018.2522418626846,663.7042281119827,1128.5534276557491,915.1751754144801
1533060933.3679998,1108.0081393513078,1027.5720279164098,694.8080630582226,1128.5534276557491,1130.8975722875002
1533060933.371,989.2953496938973,1034.5630604656712,596.2931170711048,1085.8037989525521,928.2482458551978
1533060933.375,1007.2794569088006,1032.2343069612073,544.4392331371719,1055.8799343390917,787.7043713168935
1533060933.379,1201.5387583980914,1018.2522418626846,575.5536873510616,1149.9238646134604,960.9342688772277
1533060933.383,1190.7453470626415,1006.6037023044956,606.6681415649514,1179.847729226921,1042.6459795120668
1533060933.387,1064.8344940095076,1013.594734853757,580.7358899641599,1124.2723364339874,1078.598596684158
1533060933.391,967.7085270229971,1036.891813970135,611.8503441780497,1094.3484718205268,931.5148400052593
1533060933.395,1018.0728682442507,1048.5451255641938,648.1470010050379,1085.8037989525521,728.8722074134282
1533060933.399,1237.5143403441682,1060.1936651223828,606.6681415649514,1141.3704369577113,840.0033469202356
1533060933.4029999,1223.1255810689916,1076.5044837253693,575.5536873510616,1201.2181661846323,882.4891523924503
1533060933.407,1079.2306208009543,1078.8332372298332,606.6681415649514,1162.749628703197,689.6529960912752
1533060933.411,964.1131790832704,1067.1846976716442,611.8503441780497,1094.3484718205268,480.47048135884955
1533060933.414,935.3282930166471,1046.2116000238602,591.1109144580065,1000.304541546158,607.9412854564362
1533060933.418,1104.412791411581,1032.2343069612073,617.0325467911481,1013.1303056358946,771.3647067261143
1533060933.4220002,1136.7856579016611,1053.2026325731215,622.2147494042464,1085.8037989525521,732.1388015634898
1533060933.426,1032.4616275194273,1069.513451176108,580.7358899641599,1072.9780348628155,1049.1858616526613
1533060933.43,920.9395337414703,1071.8469767164418,513.3353981909319,1047.3265066833424,1124.3576901469057
1533060933.434,928.1375971371937,1074.1757302209055,492.5853492032389,1055.8799343390917,692.9195902413368
1533060933.438,1151.174417176838,1067.1846976716442,513.3353981909319,1120.0,862.876199811138
1533060933.4420002,1194.348062518638,1064.8559441671803,497.77817108398705,1167.0219651371845,859.6096056610764
1533060933.446,1050.445734734331,1074.1757302209055,513.3353981909319,1145.6515281794732,787.7043713168935
1533060933.45,960.5104636272738,1083.4955162746307,585.9180925772583,1128.5534276557491,1045.9125736621284
1533060933.454,953.3197677478205,1062.5224186268467,658.5114062312346,1120.0,957.6676747271662
1533060933.457,1154.7697651165647,1067.1846976716442,663.7042281119827,1192.6734933166576,764.8248245855197
1533060933.461,1269.8945743505183,1102.135088382081,596.2931170711048,1256.793558977566,581.7884507345294
1533060933.465,1183.554651183188,1104.4638418865447,580.7358899641599,1278.1639959352772,506.6166222402849
1533060933.4689999,1036.056975459154,1083.4955162746307,565.178662857215,1231.1420307980927,1212.6092829223394
1533060933.4729998,956.9151156875472,1081.1667627701668,539.2570305240735,1158.468537481435,1251.8284942444923
1533060933.4770002,1147.5790692371113,1078.8332372298332,674.0686333381794,1239.6954584538419,483.7370755089111
1533060933.481,1226.7209290087183,1064.8559441671803,684.4436578320259,1239.6954584538419,634.0874263378715
1533060933.485,1097.2147280158576,1071.8469767164418,575.5536873510616,1158.468537481435,957.6676747271662
1533060933.4889998,1018.0728682442507,1083.4955162746307,591.1109144580065,1162.749628703197,640.6206146379947
1533060933.4929998,960.5104636272738,1069.513451176108,637.7719765111913,1124.2723364339874,526.2228809811257
1533060933.4970002,1090.0166646201344,1060.1936651223828,689.6258604451243,1120.0,768.0914187355812
1533060933.5,1187.1499991229148,1046.2116000238602,648.1470010050379,1120.0,565.4487861437501
1533060933.504,1093.619380076131,1039.2253395104688,617.0325467911481,1141.3704369577113,542.5692394123764
1533060933.508,1021.6682161839774,1067.1846976716442,580.7358899641599,1171.2943015711717,928.2482458551978
1533060933.512,964.1131790832704,1088.1530232835582,508.14257631018376,1137.0981005237238,585.0617387250624
1533060933.516,1064.8344940095076,1064.8559441671803,539.2570305240735,1154.1962010474479,522.9562868310642
1533060933.52,1172.761239847738,1046.2116000238602,559.9964602441167,1132.8257640897366,656.9669730692453
1533060933.524,1115.1988352307612,1055.5361581134553,554.8142576310183,1094.3484718205268,758.2849424449252
1533060933.5279999,1057.6437981300542,1048.5451255641938,549.6214357502702,1115.7276635660126,790.970965466955
1533060933.532,989.2953496938973,1046.2116000238602,637.7719765111913,1128.5534276557491,993.6202918992576
1533060933.536,1068.4372094655043,1046.2116000238602,777.7764012060454,1145.6515281794732,1327.000322738737
1533060933.539,1223.1255810689916,1043.8828465193963,746.6619469921557,1205.499257406394,954.3943867366331
1533060933.543,1169.1658919080112,1043.8828465193963,788.1408064322421,1226.8696943641053,872.6826761017941
1533060933.5470002,1046.8503867946042,1032.2343069612073,865.9269419669665,1188.3924020948957,1072.0587145435636
1533060933.551,967.7085270229971,1015.9234883582209,824.4374632592302,1154.1962010474479,692.9195902413368
1533060933.555,1010.8748048485273,1018.2522418626846,865.9269419669665,1141.3704369577113,735.4053957135513
1533060933.559,1172.761239847738,1022.9145209074821,798.5158309260886,1162.749628703197,931.5148400052593
1533060933.563,1176.3565877874646,1013.594734853757,736.297541765959,1167.0219651371845,1058.985644102846
1533060933.5670002,1075.6279053449575,1022.9145209074821,736.297541765959,1158.468537481435,1209.3359949318065
1533060933.571,953.3197677478205,1032.2343069612073,648.1470010050379,1077.250371296803,1127.6242842969673
1533060933.575,971.3038749627239,1036.891813970135,751.844149605254,1013.1303056358946,712.532542822649
1533060933.579,1169.1658919080112,1041.5540930149325,860.7341200862184,1098.6295630422887,715.7991369727106
1533060933.582,1176.3565877874646,1032.2343069612073,808.8908554199352,1137.0981005237238,875.9559640923271
1533060933.586,1097.2147280158576,1039.2253395104688,855.5519174731199,1145.6515281794732,719.0657311227721
1533060933.59,1000.0813935130774,1041.5540930149325,886.6663716870097,1137.0981005237238,369.3393418520422
1533060933.5939999,953.3197677478205,1034.5630604656712,865.9269419669665,1094.3484718205268,205.9159205823641
1533060933.5979998,1086.4213166804077,1013.594734853757,834.8124877530768,1102.9018994762762,594.861521175247
1533060933.6020002,1097.2147280158576,1013.594734853757,767.4013767121988,1107.1742359102634,1009.9599564900368
1533060933.606,1039.6596909151508,1022.9145209074821,762.2191740991005,1124.2723364339874,1189.7297361909655
1533060933.61,964.1131790832704,1006.6037023044956,741.4797443790573,1094.3484718205268,1300.8541818573015
1533060933.6139998,910.1461224060204,999.6126697552344,679.2614552189276,1034.500742593606,1398.9122509233912
1533060933.6179998,1072.032557405231,987.9593581611755,575.5536873510616,1034.500742593606,1163.5769014690588
1533060933.6220002,1108.0081393513078,997.2839162507705,528.882006030227,1043.0541702493551,1121.0910959968442
1533060933.625,1021.6682161839774,1022.9145209074821,596.2931170711048,1017.402642069882,1013.2265506400984
1533060933.629,982.0972862981739,1036.891813970135,658.5114062312346,991.7511138904089,856.3430115110149
1533060933.633,971.3038749627239,1032.2343069612073,720.7403146590141,1017.402642069882,1029.5729090713492
1533060933.637,1129.5949620222077,1020.5809953671485,767.4013767121988,1102.9018994762762,820.3903943389234
1533060933.641,1194.348062518638,1036.891813970135,648.1470010050379,1171.2943015711717,722.3323252728337
1533060933.645,1100.8100759555844,1041.5540930149325,585.9180925772583,1107.1742359102634,751.751754144802
1533060933.649,1021.6682161839774,1027.5720279164098,694.8080630582226,1094.3484718205268,585.0617387250624
1533060933.6529999,967.7085270229971,1036.891813970135,767.4013767121988,1090.0761353865396,643.8939026285276
1533060933.657,1046.8503867946042,1022.9145209074821,710.3652901651675,1038.7818338153677,944.5879104459771
1533060933.661,1093.619380076131,1006.6037023044956,720.7403146590141,1038.7818338153677,1104.7447375655936
1533060933.665,1036.056975459154,1006.6037023044956,736.297541765959,1025.956069725631,902.1021049737624
1533060933.668,971.3038749627239,1020.5809953671485,653.3292036181361,1021.6749785038693,526.2228809811257
1533060933.6720002,895.7573631308436,1041.5540930149325,731.1047198852108,1013.1303056358946,601.4014033158417
1533060933.676,1025.263564123704,1039.2253395104688,850.3697148600216,1064.4246072070664,621.0143558971539
1533060933.68,1143.9837212973846,1029.9007814208737,876.2913471931632,1128.5534276557491,885.7557465425118
1533060933.684,1039.6596909151508,1043.8828465193963,855.5519174731199,1077.250371296803,794.2442534574881
1533060933.688,946.1217043520971,1036.891813970135,834.8124877530768,1013.1303056358946,588.3283328751239
1533060933.6920002,848.9957373655867,1034.5630604656712,814.0730580330335,970.3806769326976,699.4527785414599
1533060933.696,928.1375971371937,1046.2116000238602,824.4374632592302,991.7511138904089,764.8248245855197
1533060933.7,1136.7856579016611,1050.8738790686577,814.0730580330335,1094.3484718205268,993.6202918992576
1533060933.704,1118.8015506867578,1048.5451255641938,865.9269419669665,1145.6515281794732,755.0183482948636
1533060933.708,1007.2794569088006,1032.2343069612073,907.405801407053,1141.3704369577113,565.4487861437501
1533060933.711,888.5666672513902,1029.9007814208737,850.3697148600216,1085.8037989525521,823.656988488985
1533060933.715,967.7085270229971,1048.5451255641938,886.6663716870097,1072.9780348628155,977.2739334680069
1533060933.7189999,1154.7697651165647,1067.1846976716442,938.5202556209427,1162.749628703197,911.9085812644186
1533060933.7229998,1140.3810058413878,1064.8559441671803,814.0730580330335,1196.9458297506449,947.86119843651
1533060933.7270002,1061.2391460697809,1050.8738790686577,798.5158309260886,1184.1200656609083,617.7410679066209
1533060933.731,956.9151156875472,1062.5224186268467,855.5519174731199,1111.4465723442509,918.4417695645417
1533060933.735,1003.6841089690739,1069.513451176108,767.4013767121988,1068.7056984288283,1062.258932093379
1533060933.7389998,1187.1499991229148,1076.5044837253693,705.1830875520692,1149.9238646134604,539.3026452623149
1533060933.7429998,1169.1658919080112,1097.4775813731533,725.9225172721124,1149.9238646134604,755.0183482948636
1533060933.7470002,1061.2391460697809,1090.486548823892,746.6619469921557,1081.5227077307902,1068.792120393502
1533060933.7510002,956.9151156875472,1092.8153023283558,746.6619469921557,1060.152270773079,1248.5619000944307
1533060933.754,985.6926342379006,1095.1440558328197,767.4013767121988,1055.8799343390917,1130.8975722875002
1533060933.758,1143.9837212973846,1088.1530232835582,736.297541765959,1047.3265066833424,611.2078796064977
1533060933.762,1115.1988352307612,1083.4955162746307,653.3292036181361,1025.956069725631,895.5622228331679
1533060933.766,1003.6841089690739,1069.513451176108,658.5114062312346,1013.1303056358946,1268.1681588352717
1533060933.77,935.3282930166471,1064.8559441671803,601.4753196842032,1030.2284061596185,892.2956286831063
1533060933.774,938.9310084726437,1062.5224186268467,539.2570305240735,1017.402642069882,598.1348091657801
1533060933.7779999,1082.825968740681,1064.8559441671803,611.8503441780497,1038.7818338153677,643.8939026285276
1533060933.782,1093.619380076131,1071.8469767164418,617.0325467911481,1102.9018994762762,679.8465198006191
1533060933.786,1014.477520304524,1062.5224186268467,679.2614552189276,1098.6295630422887,957.6676747271662
1533060933.79,902.955426526567,1057.864911617919,700.0008849389708,1017.402642069882,722.3323252728337
1533060933.793,870.5751925202168,1053.2026325731215,653.3292036181361,1017.402642069882,581.7884507345294
1533060933.7970002,1064.8344940095076,1053.2026325731215,715.5581120459157,1102.9018994762762,954.3943867366331
1533060933.801,1133.1903099619344,1069.513451176108,746.6619469921557,1128.5534276557491,836.7300589297026
1533060933.805,1036.056975459154,1060.1936651223828,736.297541765959,1124.2723364339874,666.7734493599014
1533060933.809,924.534881681197,1041.5540930149325,689.6258604451243,1094.3484718205268,902.1021049737624
1533060933.813,874.1779079762134,1050.8738790686577,684.4436578320259,1064.4246072070664,820.3903943389234
1533060933.8170002,1068.4372094655043,1067.1846976716442,658.5114062312346,1068.7056984288283,575.2552624344063
1533060933.821,1161.967828512288,1078.8332372298332,591.1109144580065,1094.3484718205268,656.9669730692453
1533060933.825,1018.0728682442507,1071.8469767164418,632.589773898093,1120.0,794.2442534574881
1533060933.829,866.9798445804901,1057.864911617919,653.3292036181361,1098.6295630422887,676.5732318100861
1533060933.833,805.8220920237866,1060.1936651223828,705.1830875520692,1043.0541702493551,784.4377771668319
1533060933.836,985.6926342379006,1076.5044837253693,715.5581120459157,1068.7056984288283,784.4377771668319
1533060933.84,1133.1903099619344,1090.486548823892,653.3292036181361,1124.2723364339874,902.1021049737624
1533060933.8439999,1057.6437981300542,1081.1667627701668,705.1830875520692,1120.0,960.9342688772277
1533060933.8479998,931.7329450769204,1062.5224186268467,777.7764012060454,1064.4246072070664,823.656988488985
1533060933.8520002,888.5666672513902,1071.8469767164418,767.4013767121988,1051.5988431173298,1055.7190499527844
1533060933.856,1075.6279053449575,1083.4955162746307,793.3336283129903,1081.5227077307902,794.2442534574881
1533060933.86,1208.736821793815,1078.8332372298332,736.297541765959,1141.3704369577113,1121.0910959968442
1533060933.8639998,1118.8015506867578,1085.8242697790945,648.1470010050379,1132.8257640897366,1327.000322738737
1533060933.8679998,1007.2794569088006,1071.8469767164418,700.0008849389708,1085.8037989525521,715.7991369727106
1533060933.8720002,892.1620151911169,1050.8738790686577,674.0686333381794,1047.3265066833424,853.0764173609533
1533060933.8760002,1043.2550388548775,1074.1757302209055,648.1470010050379,1077.250371296803,1385.8324866422022
1533060933.879,1248.3077516796184,1104.4638418865447,606.6681415649514,1158.468537481435,1157.0437131689357
1533060933.883,1161.967828512288,1120.7746604895312,549.6214357502702,1179.847729226921,1183.189854050371
1533060933.887,1061.2391460697809,1137.0854790925177,487.4031465901405,1132.8257640897366,823.656988488985
1533060933.891,953.3197677478205,1120.7746604895312,492.5853492032389,1047.3265066833424,379.1458181426983
1533060933.895,1028.8662795797006,1095.1440558328197,585.9180925772583,1047.3265066833424,755.0183482948636
1533060933.899,1197.9434104583647,1081.1667627701668,637.7719765111913,1102.9018994762762,990.3470039087246
1533060933.9029999,1133.1903099619344,1069.513451176108,611.8503441780497,1111.4465723442509,807.3173238982057
1533060933.907,1010.8748048485273,1076.5044837253693,585.9180925772583,1064.4246072070664,735.4053957135513
1533060933.911,931.7329450769204,1092.8153023283558,591.1109144580065,1034.500742593606,624.2809500472154
1533060933.915,1003.6841089690739,1106.7973674268785,617.0325467911481,1043.0541702493551,467.39071707766044
1533060933.919,1172.761239847738,1111.4548744358062,591.1109144580065,1064.4246072070664,689.6529960912752
1533060933.9220002,1125.9922465662112,1113.7883999761398,544.4392331371719,1051.5988431173298,807.3173238982057
1533060933.926,1007.2794569088006,1111.4548744358062,632.589773898093,1030.2284061596185,719.0657311227721
1533060933.93,920.9395337414703,1104.4638418865447,637.7719765111913,1017.402642069882,895.5622228331679
1533060933.934,935.3282930166471,1099.8063348776172,544.4392331371719,970.3806769326976,947.86119843651
1533060933.938,1104.412791411581,1088.1530232835582,559.9964602441167,1000.304541546158,1052.4524558027229
1533060933.9420002,1115.1988352307612,1099.8063348776172,601.4753196842032,1051.5988431173298,1398.9122509233912
1533060933.946,1028.8662795797006,1102.135088382081,689.6258604451243,1038.7818338153677,1376.0327041920175
1533060933.95,935.3282930166471,1071.8469767164418,705.1830875520692,1004.5768779801454,1277.9746351259278
1533060933.954,910.1461224060204,1064.8559441671803,606.6681415649514,970.3806769326976,960.9342688772277
1533060933.958,1054.0484501903275,1050.8738790686577,606.6681415649514,991.7511138904089,696.1861843913983
1533060933.9620001,1097.2147280158576,1050.8738790686577,653.3292036181361,1051.5988431173298,833.4634647796411
1533060933.965,1018.0728682442507,1041.5540930149325,601.4753196842032,1085.8037989525521,951.1277925865716
1533060933.9689999,913.7488378620169,1041.5540930149325,528.882006030227,1077.250371296803,1081.8651908342197
1533060933.9729998,942.5263564123704,1057.864911617919,596.2931170711048,1085.8037989525521,774.6313008761758
1533060933.9770002,1151.174417176838,1060.1936651223828,793.3336283129903,1179.847729226921,634.0874263378715
1533060933.981,1165.5631764520147,1055.5361581134553,767.4013767121988,1226.8696943641053,892.2956286831063
1533060933.985,1082.825968740681,1074.1757302209055,694.8080630582226,1175.5753927929336,856.3430115110149
1533060933.9889998,978.5019383584472,1085.8242697790945,751.844149605254,1068.7056984288283,421.6383174553843
1533060933.9929998,928.1375971371937,1064.8559441671803,746.6619469921557,1060.152270773079,473.930599218255
1533060933.9970002,1100.8100759555844,1053.2026325731215,798.5158309260886,1154.1962010474479,921.7150575550746
1533060934.0010002,1201.5387583980914,1048.5451255641938,798.5158309260886,1184.1200656609083,797.5108476075496
1533060934.005,1111.6034872910345,1041.5540930149325,782.9586038191437,1128.5534276557491,751.751754144802
1533060934.008,989.2953496938973,1050.8738790686577,788.1408064322421,1132.8257640897366,885.7557465425118
1533060934.012,938.9310084726437,1060.1936651223828,798.5158309260886,1132.8257640897366,666.7734493599014
1533060934.016,1111.6034872910345,1067.1846976716442,928.1452311270962,1158.468537481435,741.945277854146
1533060934.02,1201.5387583980914,1067.1846976716442,860.7341200862184,1188.3924020948957,692.9195902413368
1533060934.024,1097.2147280158576,1055.5361581134553,689.6258604451243,1158.468537481435,640.6206146379947
1533060934.0279999,1000.0813935130774,1050.8738790686577,663.7042281119827,1115.7276635660126,784.4377771668319
1533060934.032,949.7170522918238,1057.864911617919,663.7042281119827,1090.0761353865396,797.5108476075496
1533060934.036,1079.2306208009543,1071.8469767164418,725.9225172721124,1107.1742359102634,1117.8178080063112
1533060934.04,1125.9922465662112,1055.5361581134553,700.0008849389708,1102.9018994762762,1382.5658924921406
1533060934.044,1010.8748048485273,1025.243274411946,674.0686333381794,1107.1742359102634,1013.2265506400984
1533060934.0470002,942.5263564123704,1025.243274411946,762.2191740991005,1137.0981005237238,473.930599218255
1533060934.051,884.9639517953935,1032.2343069612073,715.5581120459157,1115.7276635660126,696.1861843913983
1533060934.055,985.6926342379006,1029.9007814208737,679.2614552189276,1051.5988431173298,974.0073393179454
1533060934.059,1140.3810058413878,1025.243274411946,637.7719765111913,1068.7056984288283,826.9235826390465
1533060934.063,1090.0166646201344,1013.594734853757,642.9647983919394,1124.2723364339874,1081.8651908342197
1533060934.0670002,1000.0813935130774,1004.270176764162,751.844149605254,1128.5534276557491,1114.5512138562497
1533060934.071,920.9395337414703,999.6126697552344,694.8080630582226,1081.5227077307902,630.82083218781
1533060934.075,1000.0813935130774,1004.270176764162,689.6258604451243,1047.3265066833424,987.080409758663
1533060934.079,1129.5949620222077,1011.2612093134234,767.4013767121988,1085.8037989525521,849.8031293704203
1533060934.083,1093.619380076131,999.6126697552344,710.3652901651675,1098.6295630422887,310.507177948577
1533060934.0870001,1061.2391460697809,990.2928837015091,617.0325467911481,1072.9780348628155,853.0764173609533
1533060934.09,1014.477520304524,992.621637205973,570.3714847379632,1025.956069725631,1091.671667124876
1533060934.0939999,1082.825968740681,992.621637205973,601.4753196842032,1021.6749785038693,915.1751754144801
1533060934.0979998,1244.7124037398917,997.2839162507705,725.9225172721124,1111.4465723442509,970.7407451678838
1533060934.1020002,1208.736821793815,1020.5809953671485,705.1830875520692,1094.3484718205268,905.368699123824
1533060934.106,1108.0081393513078,1020.5809953671485,720.7403146590141,1021.6749785038693,1003.4267681899137
1533060934.11,992.890697633624,1013.594734853757,751.844149605254,1038.7818338153677,957.6676747271662
1533060934.1139998,992.890697633624,1020.5809953671485,736.297541765959,1021.6749785038693,689.6529960912752
1533060934.1179998,1172.761239847738,1025.243274411946,798.5158309260886,1055.8799343390917,712.532542822649
1533060934.1220002,1183.554651183188,1025.243274411946,845.1875122469232,1098.6295630422887,996.8868860493192
1533060934.1260002,1032.4616275194273,1018.2522418626846,865.9269419669665,1060.152270773079,921.7150575550746
1533060934.13,935.3282930166471,1027.5720279164098,891.8485743001081,1021.6749785038693,705.9926606820544
1533060934.133,964.1131790832704,1039.2253395104688,933.3274337401946,1025.956069725631,761.5582304354581
1533060934.137,1100.8100759555844,1036.891813970135,891.8485743001081,1081.5227077307902,653.6936850787123
1533060934.141,1111.6034872910345,1046.2116000238602,850.3697148600216,1132.8257640897366,581.7884507345294
1533060934.145,1028.8662795797006,1055.5361581134553,912.5880040201513,1171.2943015711717,571.9819744438732
1533060934.149,928.1375971371937,1046.2116000238602,850.3697148600216,1162.749628703197,539.3026452623149
1533060934.1529999,920.9395337414703,1057.864911617919,782.9586038191437,1107.1742359102634,1032.8395032214105
1533060934.157,1093.619380076131,1069.513451176108,824.4374632592302,1124.2723364339874,1418.518509664232
1533060934.161,1151.174417176838,1060.1936651223828,839.9946903661751,1167.0219651371845,1173.383377759715
1533060934.165,1064.8344940095076,1053.2026325731215,865.9269419669665,1162.749628703197,1124.3576901469057
1533060934.169,1007.2794569088006,1055.5361581134553,850.3697148600216,1141.3704369577113,1023.0330269307545
1533060934.1729999,956.9151156875472,1039.2253395104688,746.6619469921557,1120.0,970.7407451678838
1533060934.176,1082.825968740681,1027.5720279164098,705.1830875520692,1145.6515281794732,810.5839180482673
1533060934.18,1161.967828512288,1032.2343069612073,694.8080630582226,1205.499257406394,565.4487861437501
1533060934.184,1061.2391460697809,1034.5630604656712,731.1047198852108,1226.8696943641053,607.9412854564362
1533060934.188,953.3197677478205,1032.2343069612073,757.0369714860021,1196.9458297506449,634.0874263378715
1533060934.1920002,874.1779079762134,1027.5720279164098,736.297541765959,1102.9018994762762,509.8832163903465
1533060934.196,1057.6437981300542,1029.9007814208737,751.844149605254,1124.2723364339874,810.5839180482673
1533060934.2,1165.5631764520147,1027.5720279164098,710.3652901651675,1222.597357930118,1068.792120393502
1533060934.204,1075.6279053449575,1020.5809953671485,622.2147494042464,1171.2943015711717,908.6352932738855
1533060934.208,985.6926342379006,1034.5630604656712,601.4753196842032,1111.4465723442509,823.656988488985
1533060934.2120001,874.1779079762134,1060.1936651223828,632.589773898093,1077.250371296803,1023.0330269307545
1533060934.216,1014.477520304524,1078.8332372298332,663.7042281119827,1055.8799343390917,921.7150575550746
1533060934.2189999,1154.7697651165647,1078.8332372298332,617.0325467911481,1060.152270773079,709.259254832116
1533060934.2229998,1075.6279053449575,1069.513451176108,591.1109144580065,1085.8037989525521,800.7774417576112
1533060934.2270002,971.3038749627239,1055.5361581134553,601.4753196842032,1072.9780348628155,670.040043509963
1533060934.231,888.5666672513902,1050.8738790686577,559.9964602441167,1013.1303056358946,699.4527785414599
1533060934.235,992.890697633624,1060.1936651223828,637.7719765111913,1000.304541546158,1098.2115492654705
1533060934.2389998,1158.3724805725612,1071.8469767164418,648.1470010050379,1038.7818338153677,1232.2155416631801
1533060934.2429998,1118.8015506867578,1076.5044837253693,559.9964602441167,987.4787774564214,1003.4267681899137
1533060934.2470002,1036.056975459154,1078.8332372298332,606.6681415649514,978.9341045884468,921.7150575550746
1533060934.2510002,953.3197677478205,1083.4955162746307,674.0686333381794,996.0322051121707,823.656988488985
1533060934.255,1032.4616275194273,1074.1757302209055,736.297541765959,991.7511138904089,983.8138156086014
1533060934.2589998,1187.1499991229148,1069.513451176108,746.6619469921557,1098.6295630422887,1215.875877072401
1533060934.262,1100.8100759555844,1067.1846976716442,684.4436578320259,1102.9018994762762,1284.5145172665223
1533060934.266,1007.2794569088006,1060.1936651223828,684.4436578320259,1047.3265066833424,1009.9599564900368
1533060934.27,960.5104636272738,1067.1846976716442,710.3652901651675,1043.0541702493551,643.8939026285276
1533060934.274,1046.8503867946042,1088.1530232835582,674.0686333381794,1115.7276635660126,607.9412854564362
1533060934.2779999,1244.7124037398917,1104.4638418865447,720.7403146590141,1222.597357930118,696.1861843913983
1533060934.282,1223.1255810689916,1090.486548823892,793.3336283129903,1205.499257406394,911.9085812644186
1533060934.286,1118.8015506867578,1069.513451176108,772.594198592947,1171.2943015711717,849.8031293704203
1533060934.29,1021.6682161839774,1069.513451176108,746.6619469921557,1171.2943015711717,758.2849424449252
1533060934.294,1093.619380076131,1071.8469767164418,757.0369714860021,1167.0219651371845,934.7881279957924
1533060934.2979999,1291.4740295051486,1076.5044837253693,751.844149605254,1188.3924020948957,947.86119843651
1533060934.301,1251.903099619345,1081.1667627701668,689.6258604451243,1175.5753927929336,705.9926606820544
1533060934.305,1108.0081393513078,1067.1846976716442,762.2191740991005,1137.0981005237238,732.1388015634898
1533060934.309,1000.0813935130774,1055.5361581134553,793.3336283129903,1111.4465723442509,702.7260665319928
1533060934.313,1010.8748048485273,1060.1936651223828,731.1047198852108,1081.5227077307902,826.9235826390465
1533060934.3170002,1176.3565877874646,1064.8559441671803,751.844149605254,1115.7276635660126,892.2956286831063
1533060934.321,1205.1341063378181,1060.1936651223828,762.2191740991005,1141.3704369577113,745.2118720042075
1533060934.325,1072.032557405231,1048.5451255641938,819.2552606461319,1090.0761353865396,601.4014033158417
1533060934.329,960.5104636272738,1041.5540930149325,912.5880040201513,1051.5988431173298,840.0033469202356
1533060934.333,953.3197677478205,1043.8828465193963,954.0668634602378,1051.5988431173298,1075.3320025340965
1533060934.3370001,1108.0081393513078,1048.5451255641938,1016.2957718880173,1085.8037989525521,840.0033469202356
1533060934.341,1172.761239847738,1046.2116000238602,995.5563421679741,1115.7276635660126,774.6313008761758
1533060934.3439999,1111.6034872910345,1046.2116000238602,964.4418879540843,1085.8037989525521,712.532542822649
1533060934.3479998,1043.2550388548775,1036.891813970135,979.9991150610292,1081.5227077307902,843.2699410702971
1533060934.3520002,978.5019383584472,1004.270176764162,969.6240905671826,1115.7276635660126,621.0143558971539
1533060934.356,1118.8015506867578,992.621637205973,1047.410226101907,1115.7276635660126,349.72638927072995
1533060934.36,1219.5302331292648,1004.270176764162,1042.2174042211589,1141.3704369577113,699.4527785414599
1533060934.3639998,1143.9837212973846,1013.594734853757,1000.7385447810724,1158.468537481435,918.4417695645417
1533060934.3679998,1043.2550388548775,1018.2522418626846,1031.8529989949623,1120.0,536.0293572717818
1533060934.3720002,946.1217043520971,1004.270176764162,1062.9568339412021,1090.0761353865396,575.2552624344063
1533060934.3760002,1061.2391460697809,987.9593581611755,1109.6285152620367,1102.9018994762762,1130.8975722875002
1533060934.38,1176.3565877874646,999.6126697552344,1099.2534907681902,1154.1962010474479,1039.3793853620052
1533060934.3839998,1082.825968740681,1011.2612093134234,1031.8529989949623,1111.4465723442509,732.1388015634898
1533060934.387,938.9310084726437,1015.9234883582209,985.1813176741275,1025.956069725631,974.0073393179454
1533060934.391,834.59961057414,1025.243274411946,881.4735498062615,1004.5768779801454,1160.3103073189973
1533060934.395,985.6926342379006,1041.5540930149325,834.8124877530768,1055.8799343390917,1006.6933623399752
1533060934.399,1140.3810058413878,1053.2026325731215,798.5158309260886,1124.2723364339874,1189.7297361909655
1533060934.4029999,1064.8344940095076,1048.5451255641938,793.3336283129903,1124.2723364339874,1186.4564482004325
1533060934.407,982.0972862981739,1055.5361581134553,819.2552606461319,1102.9018994762762,1036.106097371472
1533060934.411,906.5507744662937,1071.8469767164418,855.5519174731199,1051.5988431173298,781.164489176299
1533060934.415,989.2953496938973,1069.513451176108,876.2913471931632,1081.5227077307902,928.2482458551978
1533060934.419,1140.3810058413878,1076.5044837253693,886.6663716870097,1196.9458297506449,794.2442534574881
1533060934.4229999,1100.8100759555844,1090.486548823892,933.3274337401946,1196.9458297506449,503.35002809022336
1533060934.427,982.0972862981739,1095.1440558328197,912.5880040201513,1124.2723364339874,388.9522944333544
1533060934.43,884.9639517953935,1109.1261209313423,834.8124877530768,1064.4246072070664,683.1131139506807
1533060934.434,996.4860455733507,1111.4548744358062,803.698033539187,1111.4465723442509,957.6676747271662
1533060934.438,1187.1499991229148,1090.486548823892,808.8908554199352,1184.1200656609083,918.4417695645417
1533060934.4420002,1129.5949620222077,1078.8332372298332,793.3336283129903,1154.1962010474479,1013.2265506400984
1533060934.446,1025.263564123704,1099.8063348776172,814.0730580330335,1137.0981005237238,970.7407451678838
1533060934.45,946.1217043520971,1109.1261209313423,777.7764012060454,1060.152270773079,650.4270909286507
1533060934.454,1046.8503867946042,1099.8063348776172,788.1408064322421,1038.7818338153677,758.2849424449252
1533060934.458,1241.109688283895,1106.7973674268785,860.7341200862184,1175.5753927929336,918.4417695645417
1533060934.4620001,1154.7697651165647,1109.1261209313423,928.1452311270962,1205.499257406394,761.5582304354581
1533060934.466,1028.8662795797006,1099.8063348776172,897.0307769132064,1124.2723364339874,552.3757157030325
1533060934.47,928.1375971371937,1106.7973674268785,829.6302851399784,1060.152270773079,807.3173238982057
1533060934.4729998,964.1131790832704,1120.7746604895312,902.2235987939546,1111.4465723442509,853.0764173609533
1533060934.4770002,1158.3724805725612,1106.7973674268785,985.1813176741275,1226.8696943641053,764.8248245855197
1533060934.481,1125.9922465662112,1085.8242697790945,871.1091445800648,1209.7715938403815,1032.8395032214105
1533060934.485,996.4860455733507,1085.8242697790945,793.3336283129903,1141.3704369577113,1451.204532686262
1533060934.4889998,874.1779079762134,1078.8332372298332,834.8124877530768,1120.0,1657.1204532686259
1533060934.4929998,856.1864332450401,1074.1757302209055,871.1091445800648,1081.5227077307902,1268.1681588352717
1533060934.4970002,1018.0728682442507,1083.4955162746307,917.7702066332497,1060.152270773079,964.2008630272892
1533060934.5010002,1050.445734734331,1095.1440558328197,938.5202556209427,1111.4465723442509,1317.2005402885522
1533060934.505,960.5104636272738,1088.1530232835582,943.702458234041,1115.7276635660126,1340.080087019926
1533060934.5089998,859.7817811847668,1081.1667627701668,917.7702066332497,1047.3265066833424,1058.985644102846
1533060934.5129998,859.7817811847668,1078.8332372298332,865.9269419669665,1017.402642069882,846.5365352203587
1533060934.516,1079.2306208009543,1071.8469767164418,881.4735498062615,1094.3484718205268,758.2849424449252
1533060934.52,1169.1658919080112,1085.8242697790945,902.2235987939546,1188.3924020948957,764.8248245855197
1533060934.524,1075.6279053449575,1081.1667627701668,850.3697148600216,1175.5753927929336,934.7881279957924
1533060934.5279999,985.6926342379006,1057.864911617919,757.0369714860021,1120.0,810.5839180482673
1533060934.532,967.7085270229971,1071.8469767164418,772.594198592947,1077.250371296803,385.6790064428214
1533060934.536,1129.5949620222077,1074.1757302209055,871.1091445800648,1111.4465723442509,585.0617387250624
1533060934.54,1212.3321697335416,1074.1757302209055,834.8124877530768,1179.847729226921,1261.6349705351486
1533060934.544,1118.8015506867578,1062.5224186268467,865.9269419669665,1158.468537481435,781.164489176299
1533060934.5479999,1043.2550388548775,1064.8559441671803,1005.9207473941708,1128.5534276557491,343.19320097060677
1533060934.552,992.890697633624,1085.8242697790945,1011.113569274919,1068.7056984288283,745.2118720042075
1533060934.555,1118.8015506867578,1090.486548823892,933.3274337401946,1090.0761353865396,941.3213162959155
1533060934.559,1230.316276948445,1085.8242697790945,871.1091445800648,1162.749628703197,663.5001613693685
1533060934.563,1133.1903099619344,1071.8469767164418,803.698033539187,1115.7276635660126,526.2228809811257
1533060934.5670002,1032.4616275194273,1071.8469767164418,751.844149605254,1072.9780348628155,875.9559640923271
1533060934.571,982.0972862981739,1083.4955162746307,731.1047198852108,1051.5988431173298,830.1968706295795
1533060934.575,1111.6034872910345,1078.8332372298332,731.1047198852108,1107.1742359102634,614.4744737565593
1533060934.579,1219.5302331292648,1069.513451176108,684.4436578320259,1154.1962010474479,496.8101459496288
1533060934.583,1136.7856579016611,1069.513451176108,658.5114062312346,1115.7276635660126,480.47048135884955
1533060934.5870001,1046.8503867946042,1085.8242697790945,715.5581120459157,1077.250371296803,797.5108476075496
1533060934.591,960.5104636272738,1083.4955162746307,674.0686333381794,1038.7818338153677,784.4377771668319
1533060934.595,1086.4213166804077,1071.8469767164418,653.3292036181361,1064.4246072070664,464.1241229275989
1533060934.5979998,1237.5143403441682,1057.864911617919,705.1830875520692,1149.9238646134604,885.7557465425118
1533060934.6020002,1165.5631764520147,1060.1936651223828,668.886430725081,1132.8257640897366,875.9559640923271
1533060934.606,1043.2550388548775,1069.513451176108,653.3292036181361,1081.5227077307902,503.35002809022336
1533060934.61,928.1375971371937,1046.2116000238602,710.3652901651675,1068.7056984288283,849.8031293704203
1533060934.6139998,1003.6841089690739,1027.5720279164098,757.0369714860021,1081.5227077307902,951.1277925865716
1533060934.6179998,1165.5631764520147,1036.891813970135,772.594198592947,1102.9018994762762,843.2699410702971
1533060934.6220002,1118.8015506867578,1034.5630604656712,762.2191740991005,1060.152270773079,987.080409758663
1533060934.6260002,1021.6682161839774,1025.243274411946,782.9586038191437,1047.3265066833424,722.3323252728337
1533060934.63,920.9395337414703,1027.5720279164098,622.2147494042464,1034.500742593606,859.6096056610764
1533060934.6339998,956.9151156875472,1036.891813970135,477.0387413639438,1021.6749785038693,944.5879104459771
1533060934.6379998,1169.1658919080112,1069.513451176108,585.9180925772583,1141.3704369577113,683.1131139506807
1533060934.641,1169.1658919080112,1092.8153023283558,606.6681415649514,1192.6734933166576,843.2699410702971
1533060934.645,1050.445734734331,1076.5044837253693,606.6681415649514,1124.2723364339874,1127.6242842969673
1533060934.649,956.9151156875472,1071.8469767164418,575.5536873510616,1038.7818338153677,1268.1681588352717
1533060934.6529999,971.3038749627239,1088.1530232835582,502.9603736970854,1004.5768779801454,1036.106097371472
1533060934.657,1165.5631764520147,1092.8153023283558,565.178662857215,1107.1742359102634,983.8138156086014
1533060934.661,1187.1499991229148,1088.1530232835582,518.5176008040303,1162.749628703197,666.7734493599014
1533060934.665,1032.4616275194273,1067.1846976716442,565.178662857215,1124.2723364339874,516.423098530941
1533060934.669,924.534881681197,1057.864911617919,684.4436578320259,1107.1742359102634,1072.0587145435636
1533060934.6729999,949.7170522918238,1057.864911617919,674.0686333381794,1145.6515281794732,702.7260665319928
1533060934.677,1108.0081393513078,1046.2116000238602,731.1047198852108,1196.9458297506449,565.4487861437501
1533060934.681,1115.1988352307612,1057.864911617919,788.1408064322421,1205.499257406394,1150.5038310283412
1533060934.684,1054.0484501903275,1069.513451176108,751.844149605254,1269.6193230673025,1045.9125736621284
1533060934.688,1000.0813935130774,1069.513451176108,632.589773898093,1261.0658954115531,859.6096056610764
1533060934.6920002,974.8992229024506,1078.8332372298332,554.8142576310183,1158.468537481435,853.0764173609533
1533060934.696,1158.3724805725612,1088.1530232835582,585.9180925772583,1205.499257406394,728.8722074134282
1533060934.7,1205.1341063378181,1085.8242697790945,591.1109144580065,1222.597357930118,1052.4524558027229
1533060934.704,1061.2391460697809,1076.5044837253693,575.5536873510616,1141.3704369577113,970.7407451678838
1533060934.708,949.7170522918238,1076.5044837253693,575.5536873510616,1090.0761353865396,513.149810540408
1533060934.7120001,917.3441858017436,1074.1757302209055,601.4753196842032,1051.5988431173298,709.259254832116
1533060934.716,1086.4213166804077,1074.1757302209055,637.7719765111913,1094.3484718205268,1019.766432780693
1533060934.72,1172.761239847738,1090.486548823892,637.7719765111913,1137.0981005237238,787.7043713168935
1533060934.724,1100.8100759555844,1081.1667627701668,627.4075712849946,1132.8257640897366,781.164489176299
1533060934.7270002,1039.6596909151508,1076.5044837253693,617.0325467911481,1120.0,1160.3103073189973
1533060934.731,978.5019383584472,1102.135088382081,622.2147494042464,1090.0761353865396,941.3213162959155
1533060934.735,1111.6034872910345,1116.1171534806037,679.2614552189276,1120.0,699.4527785414599
1533060934.7389998,1201.5387583980914,1109.1261209313423,663.7042281119827,1145.6515281794732,947.86119843651
1533060934.7429998,1100.8100759555844,1120.7746604895312,622.2147494042464,1141.3704369577113,1055.7190499527844
1533060934.7470002,982.0972862981739,1111.4548744358062,658.5114062312346,1124.2723364339874,588.3283328751239
1533060934.7510002,877.7732559159401,1083.4955162746307,658.5114062312346,1043.0541702493551,532.7627631217202
1533060934.755,989.2953496938973,1085.8242697790945,715.5581120459157,1098.6295630422887,771.3647067261143
1533060934.7589998,1129.5949620222077,1092.8153023283558,803.698033539187,1205.499257406394,705.9926606820544
1533060934.7629998,1057.6437981300542,1090.486548823892,829.6302851399784,1214.043930274369,183.03637385099032
1533060934.7670002,956.9151156875472,1083.4955162746307,897.0307769132064,1158.468537481435,134.01068623818117
1533060934.77,902.955426526567,1085.8242697790945,865.9269419669665,1090.0761353865396,447.7844583368197
1533060934.774,1090.0166646201344,1113.7883999761398,855.5519174731199,1081.5227077307902,166.69670926021107
1533060934.7779999,1284.2833336256951,1132.4279720835902,907.405801407053,1188.3924020948957,196.10944429170806
1533060934.782,1201.5387583980914,1111.4548744358062,855.5519174731199,1196.9458297506449,607.9412854564362
1533060934.786,1093.619380076131,1097.4775813731533,850.3697148600216,1128.5534276557491,601.4014033158417
1533060934.79,982.0972862981739,1092.8153023283558,808.8908554199352,1081.5227077307902,741.945277854146
1533060934.794,1082.825968740681,1095.1440558328197,782.9586038191437,1128.5534276557491,712.532542822649
1533060934.7979999,1277.0852702299717,1095.1440558328197,829.6302851399784,1209.7715938403815,738.6786837040844
1533060934.802,1172.761239847738,1078.8332372298332,777.7764012060454,1171.2943015711717,853.0764173609533
1533060934.806,1028.8662795797006,1076.5044837253693,700.0008849389708,1132.8257640897366,630.82083218781
1533060934.809,938.9310084726437,1064.8559441671803,642.9647983919394,1094.3484718205268,1065.5255262434405
1533060934.813,1018.0728682442507,1062.5224186268467,642.9647983919394,1038.7818338153677,1307.3940639978962
1533060934.8170002,1187.1499991229148,1071.8469767164418,637.7719765111913,1094.3484718205268,879.2225582423887
1533060934.821,1151.174417176838,1074.1757302209055,513.3353981909319,1158.468537481435,875.9559640923271
1533060934.825,1064.8344940095076,1071.8469767164418,539.2570305240735,1107.1742359102634,1143.970642728218
1533060934.829,971.3038749627239,1069.513451176108,648.1470010050379,1055.8799343390917,1072.0587145435636
1533060934.833,982.0972862981739,1060.1936651223828,642.9647983919394,1047.3265066833424,1019.766432780693
1533060934.8370001,1176.3565877874646,1050.8738790686577,642.9647983919394,1090.0761353865396,980.5472214585399
1533060934.841,1187.1499991229148,1041.5540930149325,580.7358899641599,1115.7276635660126,712.532542822649
1533060934.845,1068.4372094655043,1036.891813970135,627.4075712849946,1081.5227077307902,872.6826761017941
1533060934.849,974.8992229024506,1048.5451255641938,705.1830875520692,1102.9018994762762,761.5582304354581
1533060934.8520002,924.534881681197,1060.1936651223828,741.4797443790573,1090.0761353865396,751.751754144802
1533060934.856,1104.412791411581,1048.5451255641938,772.594198592947,1098.6295630422887,964.2008630272892
1533060934.86,1187.1499991229148,1043.8828465193963,767.4013767121988,1171.2943015711717,1062.258932093379
1533060934.8639998,1082.825968740681,1039.2253395104688,736.297541765959,1149.9238646134604,1052.4524558027229
1533060934.8679998,946.1217043520971,1039.2253395104688,622.2147494042464,1030.2284061596185,990.3470039087246
1533060934.8720002,888.5666672513902,1041.5540930149325,549.6214357502702,991.7511138904089,892.2956286831063
1533060934.8760002,1100.8100759555844,1048.5451255641938,591.1109144580065,1068.7056984288283,1026.3063149212876
1533060934.88,1154.7697651165647,1057.864911617919,585.9180925772583,1090.0761353865396,1042.6459795120668
1533060934.8839998,1028.8662795797006,1062.5224186268467,580.7358899641599,1055.8799343390917,970.7407451678838
1533060934.8879998,967.7085270229971,1053.2026325731215,570.3714847379632,1013.1303056358946,1124.3576901469057
1533060934.8920002,931.7329450769204,1055.5361581134553,549.6214357502702,961.8360040647229,777.8978950262374
1533060934.895,1082.825968740681,1062.5224186268467,591.1109144580065,957.554912842961,794.2442534574881
1533060934.899,1215.927517673268,1060.1936651223828,596.2931170711048,1085.8037989525521,1114.5512138562497
1533060934.9029999,1133.1903099619344,1048.5451255641938,544.4392331371719,1137.0981005237238,957.6676747271662
1533060934.907,1010.8748048485273,1022.9145209074821,502.9603736970854,1111.4465723442509,1192.996330341027
1533060934.911,971.3038749627239,1015.9234883582209,554.8142576310183,1158.468537481435,1114.5512138562497
1533060934.915,1154.7697651165647,1039.2253395104688,617.0325467911481,1226.8696943641053,993.6202918992576
1533060934.919,1295.0693774448753,1053.2026325731215,575.5536873510616,1325.1859610724614,1166.8501894595918
1533060934.9229999,1212.3321697335416,1041.5540930149325,549.6214357502702,1299.543187680763,944.5879104459771
1533060934.927,1082.825968740681,1027.5720279164098,679.2614552189276,1231.1420307980927,1013.2265506400984
1533060934.931,1000.0813935130774,1011.2612093134234,731.1047198852108,1265.3382318455406,1199.5295186411502
1533060934.935,1125.9922465662112,1008.9324558089595,642.9647983919394,1269.6193230673025,1055.7190499527844
1533060934.938,1262.696510954795,1034.5630604656712,632.589773898093,1295.262096459001,895.5622228331679
1533060934.9420002,1179.9519357271913,1055.5361581134553,642.9647983919394,1269.6193230673025,908.6352932738855
1533060934.946,1086.4213166804077,1053.2026325731215,663.7042281119827,1214.043930274369,1219.1424712224625
1533060934.95,1018.0728682442507,1062.5224186268467,611.8503441780497,1214.043930274369,1140.697354737685
1533060934.954,1093.619380076131,1074.1757302209055,591.1109144580065,1179.847729226921,882.4891523924503
1533060934.958,1248.3077516796184,1076.5044837253693,611.8503441780497,1235.4231220198546,352.99967726126295
1533060934.9620001,1187.1499991229148,1067.1846976716442,637.7719765111913,1243.9677948878293,411.8318411647282
1533060934.966,1046.8503867946042,1050.8738790686577,637.7719765111913,1162.749628703197,869.4160819517325
1533060934.97,964.1131790832704,1041.5540930149325,601.4753196842032,1090.0761353865396,699.4527785414599
1533060934.974,1100.8100759555844,1064.8559441671803,622.2147494042464,1060.152270773079,522.9562868310642
1533060934.978,1269.8945743505183,1088.1530232835582,617.0325467911481,1081.5227077307902,650.4270909286507
1533060934.981,1147.5790692371113,1076.5044837253693,580.7358899641599,1068.7056984288283,866.149487801671
1533060934.985,1021.6682161839774,1062.5224186268467,596.2931170711048,1008.8579692019073,529.4961689716587
1533060934.9889998,931.7329450769204,1048.5451255641938,642.9647983919394,970.3806769326976,284.3610370671416
1533060934.9929998,985.6926342379006,1043.8828465193963,715.5581120459157,1017.402642069882,297.43410750785927
1533060934.9970002,1194.348062518638,1036.891813970135,746.6619469921557,1149.9238646134604,853.0764173609533
1533060935.0010002,1187.1499991229148,1048.5451255641938,679.2614552189276,1205.499257406394,934.7881279957924
1533060935.005,1079.2306208009543,1046.2116000238602,684.4436578320259,1192.6734933166576,875.9559640923271
1533060935.0089998,989.2953496938973,1020.5809953671485,741.4797443790573,1167.0219651371845,1202.8028066316833
1533060935.0129998,1032.4616275194273,1018.2522418626846,798.5158309260886,1175.5753927929336,1209.3359949318065
1533060935.0170002,1201.5387583980914,1025.243274411946,871.1091445800648,1235.4231220198546,918.4417695645417
1533060935.0210001,1187.1499991229148,1025.243274411946,917.7702066332497,1231.1420307980927,840.0033469202356
1533060935.024,1079.2306208009543,1020.5809953671485,928.1452311270962,1141.3704369577113,931.5148400052593
1533060935.0279999,985.6926342379006,1020.5809953671485,839.9946903661751,1081.5227077307902,761.5582304354581
1533060935.032,935.3282930166471,1020.5809953671485,720.7403146590141,1008.8579692019073,689.6529960912752
1533060935.036,1090.0166646201344,1020.5809953671485,705.1830875520692,996.0322051121707,826.9235826390465
1533060935.04,1133.1903099619344,1011.2612093134234,606.6681415649514,1072.9780348628155,843.2699410702971
1533060935.044,1010.8748048485273,983.3018511522479,617.0325467911481,1077.250371296803,441.2445761962251
1533060935.0479999,910.1461224060204,985.6306046567116,788.1408064322421,1051.5988431173298,415.09843531478975
1533060935.052,931.7329450769204,1001.9414232596981,865.9269419669665,1043.0541702493551,588.3283328751239
1533060935.056,1151.174417176838,999.6126697552344,922.9630285139979,1068.7056984288283,862.876199811138
1533060935.06,1190.7453470626415,1001.9414232596981,886.6663716870097,1111.4465723442509,761.5582304354581
1533060935.063,1075.6279053449575,1011.2612093134234,798.5158309260886,1115.7276635660126,856.3430115110149
1533060935.0670002,992.890697633624,999.6126697552344,793.3336283129903,1102.9018994762762,1327.000322738737
1533060935.071,982.0972862981739,1008.9324558089595,814.0730580330335,1124.2723364339874,1438.1314622455443
1533060935.075,1147.5790692371113,1020.5809953671485,860.7341200862184,1201.2181661846323,1137.4307605876234
1533060935.079,1190.7453470626415,1006.6037023044956,943.702458234041,1252.5212225435785,866.149487801671
1533060935.083,1090.0166646201344,1001.9414232596981,902.2235987939546,1226.8696943641053,895.5622228331679
1533060935.0870001,1025.263564123704,1011.2612093134234,917.7702066332497,1214.043930274369,594.861521175247
1533060935.091,946.1217043520971,1013.594734853757,907.405801407053,1158.468537481435,558.9089040031556
1533060935.095,1075.6279053449575,1034.5630604656712,788.1408064322421,1196.9458297506449,679.8465198006191
1533060935.099,1190.7453470626415,1048.5451255641938,741.4797443790573,1273.8916595012897,516.423098530941
1533060935.103,1090.0166646201344,1039.2253395104688,777.7764012060454,1265.3382318455406,673.3066376600245
1533060935.106,992.890697633624,1025.243274411946,793.3336283129903,1239.6954584538419,1101.478143415532
1533060935.11,931.7329450769204,1029.9007814208737,757.0369714860021,1179.847729226921,1160.3103073189973
1533060935.1139998,1050.445734734331,1053.2026325731215,731.1047198852108,1145.6515281794732,673.3066376600245
1533060935.1179998,1187.1499991229148,1071.8469767164418,710.3652901651675,1205.499257406394,402.02536487407207
1533060935.1220002,1158.3724805725612,1074.1757302209055,684.4436578320259,1256.793558977566,813.8505121983288
1533060935.1260002,1108.0081393513078,1060.1936651223828,642.9647983919394,1201.2181661846323,908.6352932738855
1533060935.13,1039.6596909151508,1046.2116000238602,637.7719765111913,1124.2723364339874,1068.792120393502
1533060935.1339998,1115.1988352307612,1048.5451255641938,611.8503441780497,1141.3704369577113,1206.069400781745
1533060935.1379998,1237.5143403441682,1062.5224186268467,523.6998034171286,1188.3924020948957,905.368699123824
1533060935.1420002,1161.967828512288,1067.1846976716442,456.28869237625076,1196.9458297506449,728.8722074134282
1533060935.1460001,1061.2391460697809,1074.1757302209055,487.4031465901405,1201.2181661846323,630.82083218781
1533060935.149,949.7170522918238,1074.1757302209055,554.8142576310183,1145.6515281794732,699.4527785414599
1533060935.1529999,1018.0728682442507,1053.2026325731215,622.2147494042464,1120.0,977.2739334680069
1533060935.157,1172.761239847738,1034.5630604656712,653.3292036181361,1205.499257406394,1431.5915801049498
1533060935.161,1104.412791411581,1039.2253395104688,627.4075712849946,1222.597357930118,1160.3103073189973
1533060935.165,992.890697633624,1055.5361581134553,611.8503441780497,1179.847729226921,1088.4050729748144
1533060935.169,874.1779079762134,1069.513451176108,539.2570305240735,1149.9238646134604,911.9085812644186
1533060935.1729999,953.3197677478205,1064.8559441671803,591.1109144580065,1162.749628703197,738.6786837040844
1533060935.177,1154.7697651165647,1062.5224186268467,679.2614552189276,1218.3162667083561,725.6056132633666
1533060935.181,1111.6034872910345,1064.8559441671803,591.1109144580065,1205.499257406394,732.1388015634898
1533060935.185,982.0972862981739,1071.8469767164418,622.2147494042464,1111.4465723442509,768.0914187355812
1533060935.189,888.5666672513902,1069.513451176108,653.3292036181361,1055.8799343390917,522.9562868310642
1533060935.1920002,953.3197677478205,1064.8559441671803,570.3714847379632,1094.3484718205268,487.0036696589727
1533060935.196,1172.761239847738,1081.1667627701668,575.5536873510616,1171.2943015711717,846.5365352203587
1533060935.2,1143.9837212973846,1090.486548823892,575.5536873510616,1201.2181661846323,1111.284619706188
1533060935.204,1010.8748048485273,1076.5044837253693,580.7358899641599,1162.749628703197,921.7150575550746
1533060935.208,946.1217043520971,1069.513451176108,585.9180925772583,1141.3704369577113,676.5732318100861
1533060935.2120001,949.7170522918238,1046.2116000238602,653.3292036181361,1081.5227077307902,607.9412854564362
1533060935.216,1104.412791411581,1015.9234883582209,700.0008849389708,1055.8799343390917,696.1861843913983
1533060935.22,1133.1903099619344,1022.9145209074821,637.7719765111913,1077.250371296803,705.9926606820544
1533060935.224,1050.445734734331,1039.2253395104688,632.589773898093,1051.5988431173298,941.3213162959155
1533060935.228,931.7329450769204,1029.9007814208737,658.5114062312346,1021.6749785038693,993.6202918992576
1533060935.232,902.955426526567,1022.9145209074821,648.1470010050379,1025.956069725631,843.2699410702971
1533060935.235,1115.1988352307612,1022.9145209074821,694.8080630582226,1115.7276635660126,983.8138156086014
1533060935.2389998,1161.967828512288,1015.9234883582209,591.1109144580065,1184.1200656609083,764.8248245855197
1533060935.2429998,1007.2794569088006,1018.2522418626846,518.5176008040303,1098.6295630422887,640.6206146379947
1533060935.2470002,906.5507744662937,1025.243274411946,591.1109144580065,1013.1303056358946,804.0440359076728
1533060935.2510002,917.3441858017436,1018.2522418626846,601.4753196842032,1034.500742593606,1268.1681588352717
1533060935.255,1086.4213166804077,1022.9145209074821,617.0325467911481,1051.5988431173298,951.1277925865716
1533060935.2589998,1079.2306208009543,1018.2522418626846,559.9964602441167,1021.6749785038693,1009.9599564900368
1533060935.2629998,992.890697633624,994.9503907104369,482.22094397704217,1034.500742593606,1117.8178080063112
1533060935.2670002,949.7170522918238,992.621637205973,508.14257631018376,1055.8799343390917,915.1751754144801
1533060935.2710001,856.1864332450401,1001.9414232596981,549.6214357502702,974.653013366685,921.7150575550746
1533060935.275,985.6926342379006,1004.270176764162,559.9964602441167,957.554912842961,869.4160819517325
1533060935.2779999,1093.619380076131,1001.9414232596981,554.8142576310183,1047.3265066833424,1045.9125736621284
1533060935.282,1043.2550388548775,1004.270176764162,596.2931170711048,1072.9780348628155,771.3647067261143
1533060935.286,942.5263564123704,985.6306046567116,679.2614552189276,1055.8799343390917,366.07274770198063
1533060935.29,841.7976739698634,976.3108186029865,736.297541765959,1021.6749785038693,879.2225582423887
1533060935.294,1010.8748048485273,987.9593581611755,736.297541765959,1025.956069725631,1062.258932093379
1533060935.2979999,1161.967828512288,1001.9414232596981,731.1047198852108,1085.8037989525521,1013.2265506400984
1533060935.302,1079.2306208009543,1025.243274411946,762.2191740991005,1120.0,941.3213162959155
1533060935.306,1021.6682161839774,1027.5720279164098,751.844149605254,1077.250371296803,879.2225582423887
1533060935.31,974.8992229024506,1027.5720279164098,606.6681415649514,1047.3265066833424,938.0547221458539
1533060935.314,1068.4372094655043,1039.2253395104688,580.7358899641599,1055.8799343390917,686.3797081007422
1533060935.3170002,1219.5302331292648,1043.8828465193963,720.7403146590141,1081.5227077307902,532.7627631217202
1533060935.321,1205.1341063378181,1053.2026325731215,782.9586038191437,1128.5534276557491,761.5582304354581
1533060935.325,1133.1903099619344,1053.2026325731215,824.4374632592302,1141.3704369577113,911.9085812644186
1533060935.329,1032.4616275194273,1057.864911617919,803.698033539187,1115.7276635660126,915.1751754144801
1533060935.333,1125.9922465662112,1069.513451176108,757.0369714860021,1098.6295630422887,627.5475441972769
1533060935.3370001,1259.1011630150683,1074.1757302209055,757.0369714860021,1115.7276635660126,804.0440359076728
1533060935.341,1212.3321697335416,1078.8332372298332,668.886430725081,1111.4465723442509,1081.8651908342197
1533060935.345,1129.5949620222077,1069.513451176108,585.9180925772583,1051.5988431173298,758.2849424449252
1533060935.349,989.2953496938973,1050.8738790686577,642.9647983919394,1004.5768779801454,728.8722074134282
1533060935.353,1043.2550388548775,1043.8828465193963,782.9586038191437,1047.3265066833424,777.8978950262374
1533060935.357,1179.9519357271913,1018.2522418626846,928.1452311270962,1090.0761353865396,777.8978950262374
1533060935.36,1133.1903099619344,1013.594734853757,964.4418879540843,1085.8037989525521,483.7370755089111
1533060935.3639998,1082.825968740681,1025.243274411946,943.702458234041,1090.0761353865396,630.82083218781
1533060935.3679998,1014.477520304524,1013.594734853757,938.5202556209427,1068.7056984288283,905.368699123824
1533060935.3720002,1039.6596909151508,1022.9145209074821,943.702458234041,1077.250371296803,653.6936850787123
1533060935.3760002,1197.9434104583647,1027.5720279164098,974.8169124479308,1128.5534276557491,875.9559640923271
1533060935.38,1179.9519357271913,1034.5630604656712,948.8846608471395,1162.749628703197,1127.6242842969673
1533060935.3839998,1100.8100759555844,1039.2253395104688,969.6240905671826,1154.1962010474479,934.7881279957924
1533060935.3879998,1000.0813935130774,1055.5361581134553,917.7702066332497,1085.8037989525521,872.6826761017941
1533060935.3920002,971.3038749627239,1083.4955162746307,819.2552606461319,1055.8799343390917,1271.4414468258046
1533060935.3960001,1165.5631764520147,1088.1530232835582,808.8908554199352,1137.0981005237238,993.6202918992576
1533060935.4,1201.5387583980914,1081.1667627701668,731.1047198852108,1175.5753927929336,496.8101459496288
1533060935.4029999,1111.6034872910345,1076.5044837253693,736.297541765959,1179.847729226921,621.0143558971539
1533060935.407,1014.477520304524,1062.5224186268467,788.1408064322421,1167.0219651371845,745.2118720042075
1533060935.411,967.7085270229971,1046.2116000238602,860.7341200862184,1162.749628703197,1153.7704251784028
1533060935.415,1129.5949620222077,1034.5630604656712,928.1452311270962,1192.6734933166576,1212.6092829223394
1533060935.419,1197.9434104583647,1055.5361581134553,777.7764012060454,1205.499257406394,840.0033469202356
1533060935.4229999,1151.174417176838,1074.1757302209055,679.2614552189276,1214.043930274369,885.7557465425118
1533060935.427,1057.6437981300542,1060.1936651223828,700.0008849389708,1179.847729226921,810.5839180482673
1533060935.431,1010.8748048485273,1060.1936651223828,627.4075712849946,1137.0981005237238,751.751754144802
1533060935.435,1194.348062518638,1067.1846976716442,585.9180925772583,1196.9458297506449,951.1277925865716
1533060935.439,1219.5302331292648,1039.2253395104688,622.2147494042464,1235.4231220198546,800.7774417576112
1533060935.4429998,1082.825968740681,1029.9007814208737,777.7764012060454,1201.2181661846323,637.3540204879331
1533060935.446,985.6926342379006,1029.9007814208737,871.1091445800648,1149.9238646134604,980.5472214585399
1533060935.45,910.1461224060204,1022.9145209074821,788.1408064322421,1098.6295630422887,924.9816517051362
1533060935.454,1079.2306208009543,1027.5720279164098,850.3697148600216,1120.0,506.6166222402849
1533060935.458,1208.736821793815,1036.891813970135,902.2235987939546,1167.0219651371845,581.7884507345294
1533060935.4620001,1100.8100759555844,1039.2253395104688,793.3336283129903,1149.9238646134604,640.6206146379947
