timestamps,TP9,AF7,AF8,TP10,Right AUX
1533044142.0770001,1073.9446464801133,799.5104558633027,675.6600329459952,929.4918290708225,924.0002867197553
1533044142.081,932.6337710063929,870.3542039355992,797.3910333466898,854.1323196710958,820.3969703279187
1533044142.085,935.7721548061096,870.3542039355992,809.5703664128935,888.6737025850686,697.1992258566606
1533044142.089,1108.4861616200283,870.3542039355992,785.2241663327545,888.6737025850686,876.3990729394577
1533044142.093,1146.16606055966,880.4688174696194,700.0062330261342,920.0767137131505,1024.7994839044404
1533044142.096,1051.9630976534088,850.1042502004811,602.6089666533102,935.775003732329,1035.9987575477269
1533044142.1,970.3201010603683,809.6250693973228,608.7048662125462,857.2706914569865,937.9979451750868
1533044142.1039999,904.375454580255,799.5104558633027,651.3138328658564,829.0060521147951,1063.9998088534965
1533044142.1079998,1058.2398652528423,860.2395904015792,681.7434664529629,894.9504461568498,1058.3973048342998
1533044142.1120002,1183.8523906136354,870.3542039355992,639.1344997996528,970.3163866463017,957.5981076496148
1533044142.1160002,1121.046127933239,839.989636666461,578.2627665731712,932.6366319464383,1033.2003727356819
1533044142.12,979.7352524595184,920.9479982727778,651.3138328658564,916.9319108375347,1133.999569920367
1533044142.1239998,882.3939057535505,890.6041576707174,633.051066292685,888.6737025850686,1075.199082496783
1533044142.1279998,1026.8431650269877,839.989636666461,602.6089666533102,869.8306096902743,901.5960050380756
1533044142.1320002,1186.9907744133523,809.6250693973228,633.051066292685,1004.8577695602744,965.9989964808564
1533044142.135,1149.3108754737204,738.7813213250262,608.7048662125462,1008.0025724358902,1052.80053521021
1533044142.139,1067.661447766336,748.9166615261242,620.8717332264814,898.0952490324656,918.3977827005588
1533044142.143,951.4769360333805,607.229165381531,718.2689995993055,942.0581783938354,727.9986619744751
1533044142.147,1061.3846801669026,607.229165381531,803.4869329059259,1067.6637918164383,767.1989869235312
1533044142.151,1256.0738046931822,931.0833384738758,748.698633186412,1036.2607806883564,1170.3957756622715
1533044142.155,1171.292424300425,1001.9270865461724,584.3462000801389,938.9133755182196,977.1982701241428
1533044142.159,989.1568349730123,941.1979520078959,572.1793330662036,844.7107732236987,772.8014909427277
1533044142.1629999,945.1937373196034,951.312565541916,572.1793330662036,822.7293085430138,932.4011755509969
1533044142.167,1067.661447766336,1082.885448152489,517.3910333466898,891.8120743709592,988.3975437674293
1533044142.171,1193.2675420127857,1285.3020788353588,432.17310004006947,932.6366319464383,1147.9972283756983
1533044142.175,1177.5691918998584,1244.8021713651224,377.397266372824,932.6366319464383,1005.1993214299124
1533044142.178,1004.8616162002833,1173.958423292826,365.21793330662035,816.4461338815073,881.9958425635476
1533044142.1820002,835.2859931860812,1113.2500154216273,249.57036641289346,734.8034498202742,968.7973812929013
1533044142.186,916.9354208934656,1062.6354944173706,188.698633186412,763.0680891624655,1033.2003727356819
1533044142.19,1099.0645791065344,1032.2916538153106,213.0448332665509,829.0060521147951,890.3967313947892
1533044142.194,1058.2398652528423,1012.0417000801924,194.78206669337962,913.7935390516441,736.3995508057167
1533044142.198,945.1937373196034,1082.885448152489,237.39103334668982,904.371992604247,730.7970467865201
1533044142.2020001,829.0092255866477,1093.000061686509,286.095899559236,810.169390309726,884.7999617706993
1533044142.206,841.5691918998583,1042.4062673493306,255.6537999198611,797.6094720764382,1094.799244971311
1533044142.21,1064.5230639666195,1012.0417000801924,219.14073282578693,841.572401437808,1220.8011086497206
1533044142.214,1133.6060942464494,1012.0417000801924,146.08966653310182,929.4918290708225,1027.5978687164854
1533044142.218,1036.258316426138,1062.6354944173706,133.92279951916655,1001.7193977743837,1195.598442155996
1533044142.221,932.6337710063929,1093.000061686509,115.66003294599528,910.6551672657534,1265.5982032228667
1533044142.225,916.9354208934656,1103.1146752205293,103.4806998797916,832.150854990411,960.3964924616598
1533044142.2289999,1083.3662289936071,1103.1146752205293,97.397266372824,894.9504461568498,912.8010130764688
1533044142.2329998,1105.3477778203116,1052.5208808833509,127.82689995993054,964.0396430745204,851.1964064457331
1533044142.2370002,1001.7168012862229,1001.9270865461724,164.35243310627308,973.4547584321923,739.1979356177616
1533044142.2410002,923.212188492899,839.989636666461,170.43586661324073,910.6551672657534,803.6009270605423
1533044142.245,847.8523906136355,779.2605021281846,237.39103334668982,825.8676803289044,940.7963299871318
1533044142.2489998,976.5968686598017,860.2395904015792,310.44209963937493,885.5353307991778,1108.7969034266423
1533044142.2529998,1061.3846801669026,799.5104558633027,261.7496994790971,982.8763048795895,1257.197314391625
1533044142.2570002,973.458484860085,728.6667077910062,231.30759983972217,938.9133755182196,971.6015005000529
1533044142.26,894.953872066761,738.7813213250262,322.6089666533102,879.2521561376714,837.1987479904017
1533044142.264,869.8339394403399,799.5104558633027,292.17933306620364,885.5353307991778,842.8012520095983
1533044142.268,1004.8616162002833,870.3542039355992,280.0,891.8120743709592,1215.198604630524
1533044142.272,1136.7444780461663,860.2395904015792,237.39103334668982,916.9319108375347,1178.796664493513
1533044142.276,1092.787811507101,941.1979520078959,164.35243310627308,916.9319108375347,893.2008506019408
1533044142.28,964.0369023465911,1042.4062673493306,115.66003294599528,838.4275985621922,862.4014144841263
1533044142.284,838.4308081001417,991.7917463450743,85.21793330662032,781.9047509675346,909.9968938693172
1533044142.2879999,970.3201010603683,951.312565541916,194.78206669337962,822.7293085430138,1201.2009461751925
1533044142.292,1143.0276767599432,910.8333847387577,243.48693290592584,882.390527923562,1044.3996463789683
1533044142.296,1042.541515139915,910.8333847387577,280.0,907.5103643901376,814.8002007038288
1533044142.3,935.7721548061096,951.312565541916,322.6089666533102,879.2521561376714,1162.0006212261364
1533044142.303,894.953872066761,920.9479982727778,286.095899559236,832.150854990411,1232.000382293007
1533044142.3070002,973.458484860085,900.7187712047375,316.5255331463425,841.572401437808,999.5968174107159
1533044142.311,1139.8892929602266,910.8333847387577,334.7882997195138,888.6737025850686,985.5991589553844
1533044142.315,1121.046127933239,850.1042502004811,328.70486621254616,929.4918290708225,904.4001242452273
1533044142.319,1020.5599663132106,789.3958423292826,310.44209963937493,891.8120743709592,848.3980216336882
1533044142.323,932.6337710063929,789.3958423292826,273.91656649303235,816.4461338815073,809.1976966846322
1533044142.3270001,948.3385522336638,738.7813213250262,377.397266372824,838.4275985621922,1013.600210261154
1533044142.331,1139.8892929602266,809.6250693973228,462.61519967944434,945.1965501797262,952.0013380255249
1533044142.335,1127.329326647016,900.7187712047375,474.78206669337965,1008.0025724358902,655.2005160955596
1533044142.339,1011.1383837997167,850.1042502004811,480.87796625261564,989.159479541096,1063.9998088534965
1533044142.343,904.375454580255,789.3958423292826,420.00623302613417,916.9319108375347,708.3984994999471
1533044142.346,929.4953872066761,748.9166615261242,462.61519967944434,860.4090632428771,305.2017107612068
1533044142.35,1139.8892929602266,748.9166615261242,535.6537999198611,935.775003732329,683.2015674013292
1533044142.3539999,1117.907744133522,738.7813213250262,493.04483326655094,942.0581783938354,862.4014144841263
1533044142.3579998,1011.1383837997167,759.0312750601444,468.698633186412,923.2150854990412,839.9971328024467
1533044142.3620002,992.295218772729,789.3958423292826,468.698633186412,888.6737025850686,730.7970467865201
1533044142.3660002,992.295218772729,799.5104558633027,505.2241663327546,797.6094720764382,1016.3985950731989
1533044142.37,1130.4677104467328,819.7604095984208,535.6537999198611,876.1137843517807,1083.5999713280244
1533044142.3739998,1124.1845117329556,819.7604095984208,511.3075998397222,954.6180966271232,845.5996368216432
1533044142.3779998,998.5784174865062,779.2605021281846,480.87796625261564,910.6551672657534,926.7986715318003
1533044142.3820002,894.953872066761,759.0312750601444,541.7372334268288,872.9689814761649,960.3964924616598
1533044142.385,904.375454580255,850.1042502004811,541.7372334268288,838.4275985621922,629.997849601835
1533044142.389,1086.504612793324,931.0833384738758,529.5703664128935,822.7293085430138,669.198174550891
1533044142.393,1136.7444780461663,870.3542039355992,535.6537999198611,923.2150854990412,988.3975437674293
1533044142.397,986.0184511732956,759.0312750601444,480.87796625261564,964.0396430745204,683.2015674013292
1533044142.401,891.8154882670443,718.552094256986,444.3524331062731,891.8120743709592,856.7989104649297
1533044142.405,926.3570034069594,819.7604095984208,450.4358666132407,869.8306096902743,1430.8003918503323
1533044142.409,1099.0645791065344,860.2395904015792,456.51930012020836,989.159479541096,1276.7974768661531
1533044142.4129999,1180.707575699575,789.3958423292826,413.9227995191666,1036.2607806883564,901.5960050380756
1533044142.417,1070.8062626803967,839.989636666461,450.4358666132407,970.3163866463017,797.9984230413456
1533044142.421,1014.2767675994335,920.9479982727778,480.87796625261564,960.8948401989045,714.0010035191436
1533044142.425,979.7352524595184,941.1979520078959,499.12826677351853,957.7564684130139,837.1987479904017
1533044142.428,1055.1014814531256,1001.9270865461724,541.7372334268288,951.4732937515074,772.8014909427277
1533044142.4320002,1158.7260268728708,1032.2916538153106,578.2627665731712,982.8763048795895,957.5981076496148
1533044142.436,1089.6429965930406,1062.6354944173706,608.7048662125462,970.3163866463017,1075.199082496783
1533044142.44,1001.7168012862229,1113.2500154216273,633.051066292685,976.5995613078081,996.7984325986708
1533044142.444,888.670673352984,1062.6354944173706,553.9165664930324,942.0581783938354,1111.601022633794
1533044142.448,945.1937373196034,1022.1563136142125,505.2241663327546,891.8120743709592,834.4003631783568
1533044142.4520001,1127.329326647016,961.447905743014,517.3910333466898,938.9133755182196,907.1985090572723
1533044142.456,1073.9446464801133,829.8750231324409,499.12826677351853,951.4732937515074,890.3967313947892
1533044142.46,938.91696972017,850.1042502004811,535.6537999198611,916.9319108375347,778.3982605668176
1533044142.464,838.4308081001417,910.8333847387577,547.8331329860647,872.9689814761649,1069.5965784775863
1533044142.467,904.375454580255,920.9479982727778,529.5703664128935,825.8676803289044,1203.9993309872375
1533044142.471,1108.4861616200283,941.1979520078959,535.6537999198611,942.0581783938354,708.3984994999471
1533044142.475,1089.6429965930406,941.1979520078959,590.4420996393749,992.2978513269866,823.2010895350703
1533044142.4789999,982.8800673735789,910.8333847387577,687.8268999599305,945.1965501797262,1304.7985281719227
1533044142.4829998,942.0553535198867,809.6250693973228,687.8268999599305,923.2150854990412,988.3975437674293
1533044142.4870002,960.8985185468744,799.5104558633027,730.4358666132407,866.6922379043837,1058.3973048342998
1533044142.4910002,1105.3477778203116,799.5104558633027,724.3524331062731,973.4547584321923,1170.3957756622715
1533044142.495,1086.504612793324,748.9166615261242,675.6600329459952,1045.6823271357534,546.000430079633
1533044142.4989998,1017.4215825134938,860.2395904015792,700.0062330261342,948.3349219656168,590.797524652779
1533044142.5029998,885.5322895532672,961.447905743014,687.8268999599305,872.9689814761649,907.1985090572723
1533044142.5070002,869.8339394403399,900.7187712047375,633.051066292685,879.2521561376714,898.7976202260307
1533044142.51,1114.7629292194617,890.6041576707174,614.7882997195138,954.6180966271232,1198.396826968041
1533044142.514,1143.0276767599432,941.1979520078959,560.0,992.2978513269866,1058.3973048342998
1533044142.518,1048.8247138536922,971.5625192770341,535.6537999198611,992.2978513269866,845.5996368216432
1533044142.522,986.0184511732956,971.5625192770341,547.8331329860647,951.4732937515074,912.8010130764688
1533044142.526,967.1752861463078,971.5625192770341,590.4420996393749,904.371992604247,999.5968174107159
1533044142.53,1149.3108754737204,1001.9270865461724,566.095899559236,942.0581783938354,1072.400697684738
1533044142.534,1186.9907744133523,981.6771328110542,523.4869329059259,1004.8577695602744,1318.796186627254
1533044142.5379999,1105.3477778203116,961.447905743014,608.7048662125462,1008.0025724358902,1313.1994170031642
1533044142.542,1033.1199326264211,961.447905743014,578.2627665731712,954.6180966271232,1080.795852120873
1533044142.546,1026.8431650269877,931.0833384738758,547.8331329860647,973.4547584321923,1022.0010990923954
1533044142.55,1133.6060942464494,850.1042502004811,687.8268999599305,989.159479541096,823.2010895350703
1533044142.553,1111.6245454197451,759.0312750601444,736.5193001202084,942.0581783938354,994.0000477866259
1533044142.5570002,1026.8431650269877,698.3021405218678,748.698633186412,967.178014860411,1105.9985186145975
1533044142.561,951.4769360333805,748.9166615261242,754.7820666933796,926.3534572849319,1083.5999713280244
1533044142.565,916.9354208934656,799.5104558633027,675.6600329459952,829.0060521147951,1307.5969129839675
1533044142.569,1036.258316426138,738.7813213250262,608.7048662125462,863.5538661184929,1189.9959381367994
1533044142.573,1105.3477778203116,708.416754055888,523.4869329059259,935.775003732329,814.8002007038288
1533044142.5770001,1026.8431650269877,728.6667077910062,529.5703664128935,920.0767137131505,764.4006021114863
1533044142.581,901.2306396661945,759.0312750601444,468.698633186412,822.7293085430138,1049.9964160030584
1533044142.585,841.5691918998583,779.2605021281846,377.397266372824,794.4646692008224,1187.1975533247546
1533044142.589,1070.8062626803967,728.6667077910062,353.0510662926851,872.9689814761649,1086.3983561400694
1533044142.592,1230.953872066761,728.6667077910062,365.21793330662035,964.0396430745204,890.3967313947892
1533044142.596,1133.6060942464494,819.7604095984208,438.26899959930546,1001.7193977743837,702.7959954807505
1533044142.6,1048.8247138536922,880.4688174696194,420.00623302613417,970.3163866463017,607.599302315262
1533044142.6039999,976.5968686598017,870.3542039355992,426.0896665331018,929.4918290708225,806.3993118725872
1533044142.6079998,1080.2214140795468,789.3958423292826,541.7372334268288,957.7564684130139,811.9960814966771
1533044142.6120002,1293.7601347471577,708.416754055888,493.04483326655094,1033.1224089024658,599.1984134840205
1533044142.6160002,1240.3754545802549,759.0312750601444,517.3910333466898,1020.5624906691779,979.9966549361878
1533044142.62,1064.5230639666195,769.1458885941645,560.0,970.3163866463017,968.7973812929013
1533044142.6239998,926.3570034069594,657.8229597187094,462.61519967944434,923.2150854990412,994.0000477866259
1533044142.6279998,1004.8616162002833,586.9792116464129,511.3075998397222,938.9133755182196,1094.799244971311
1533044142.6320002,1174.4308081001416,647.7083461846893,626.9551667334491,1045.6823271357534,1061.1956896463448
1533044142.635,1149.3108754737204,789.3958423292826,693.9103334668981,1083.362081835617,960.3964924616598
1533044142.639,1077.08303027983,809.6250693973228,779.1282667735186,1008.0025724358902,1005.1993214299124
1533044142.643,945.1937373196034,708.416754055888,712.1731000400695,923.2150854990412,873.6006881274128
1533044142.647,970.3201010603683,718.552094256986,693.9103334668981,923.2150854990412,1010.7960910540023
1533044142.651,1161.8708417869311,769.1458885941645,687.8268999599305,1014.2793160076715,1531.5995890350173
1533044142.655,1114.7629292194617,779.2605021281846,535.6537999198611,1033.1224089024658,1355.1981267642652
1533044142.659,1011.1383837997167,779.2605021281846,438.26899959930546,982.8763048795895,884.7999617706993
1533044142.6629999,938.91696972017,819.7604095984208,438.26899959930546,954.6180966271232,778.3982605668176
1533044142.667,923.212188492899,870.3542039355992,511.3075998397222,904.371992604247,1013.600210261154
1533044142.671,1086.504612793324,900.7187712047375,505.2241663327546,926.3534572849319,772.8014909427277
1533044142.675,1143.0276767599432,850.1042502004811,456.51930012020836,998.581025988493,565.600592554161
1533044142.678,1039.4031313401983,860.2395904015792,523.4869329059259,976.5995613078081,716.7993883311887
1533044142.6820002,938.91696972017,941.1979520078959,517.3910333466898,901.2336208183563,784.0007645860143
1533044142.686,967.1752861463078,920.9479982727778,590.4420996393749,923.2150854990412,982.8007741433394
1533044142.69,1183.8523906136354,951.312565541916,693.9103334668981,976.5995613078081,1170.3957756622715
1533044142.694,1290.6153198330974,1032.2916538153106,639.1344997996528,1051.959070707535,867.9981841082163
1533044142.698,1196.412356926846,1012.0417000801924,639.1344997996528,1067.6637918164383,694.4008410446156
1533044142.7020001,1067.661447766336,1042.4062673493306,639.1344997996528,1004.8577695602744,924.0002867197553
1533044142.706,1036.258316426138,1042.4062673493306,578.2627665731712,1023.7008624550687,1111.601022633794
1533044142.71,1168.1476093863646,981.6771328110542,626.9551667334491,1064.5254200305478,1156.39811720694
1533044142.714,1208.9723232400568,961.447905743014,663.4806998797916,1061.380617154932,1268.3965880349115
1533044142.717,1146.16606055966,931.0833384738758,657.397266372824,1048.8206989216442,1209.5961006113275
1533044142.721,1045.6798989396318,951.312565541916,687.8268999599305,995.4362231128772,935.1995603630418
1533044142.725,989.1568349730123,951.312565541916,700.0062330261342,945.1965501797262,702.7959954807505
1533044142.7289999,1139.8892929602266,931.0833384738758,724.3524331062731,938.9133755182196,733.6011659936717
1533044142.7329998,1227.8154882670444,951.312565541916,675.6600329459952,1008.0025724358902,937.9979451750868
1533044142.7370002,1070.8062626803967,829.8750231324409,693.9103334668981,998.581025988493,1310.4010321911192
1533044142.7410002,948.3385522336638,769.1458885941645,645.2179333066204,923.2150854990412,1232.000382293007
1533044142.745,894.953872066761,850.1042502004811,608.7048662125462,841.572401437808,940.7963299871318
1533044142.7489998,1001.7168012862229,860.2395904015792,687.8268999599305,882.390527923562,1077.997467308828
1533044142.7529998,1114.7629292194617,839.989636666461,614.7882997195138,986.0211077552053,739.1979356177616
1533044142.7570002,1039.4031313401983,860.2395904015792,560.0,957.7564684130139,817.5985855158737
1533044142.76,982.8800673735789,931.0833384738758,602.6089666533102,920.0767137131505,918.3977827005588
1533044142.764,876.1107070397734,870.3542039355992,584.3462000801389,850.98751679548,671.996559362936
1533044142.768,954.6153198330973,799.5104558633027,584.3462000801389,872.9689814761649,722.3961579552786
1533044142.772,1149.3108754737204,779.2605021281846,541.7372334268288,970.3163866463017,876.3990729394577
1533044142.776,1048.8247138536922,759.0312750601444,474.78206669337965,1001.7193977743837,1013.600210261154
1533044142.78,957.753703632814,728.6667077910062,468.698633186412,951.4732937515074,856.7989104649297
1533044142.784,945.1937373196034,718.552094256986,444.3524331062731,904.371992604247,907.1985090572723
1533044142.7879999,1026.8431650269877,789.3958423292826,450.4358666132407,935.775003732329,884.7999617706993
1533044142.792,1171.292424300425,759.0312750601444,493.04483326655094,967.178014860411,851.1964064457331
1533044142.796,1124.1845117329556,647.7083461846893,523.4869329059259,1014.2793160076715,784.0007645860143
1533044142.799,992.295218772729,627.4583924495712,560.0,989.159479541096,848.3980216336882
1533044142.803,898.0922558664778,647.7083461846893,474.78206669337965,901.2336208183563,1125.5986810891254
1533044142.8070002,913.7906059794051,637.5937326506692,444.3524331062731,926.3534572849319,806.3993118725872
1533044142.811,1105.3477778203116,657.8229597187094,486.9613997595833,986.0211077552053,848.3980216336882
1533044142.815,1149.3108754737204,748.9166615261242,450.4358666132407,948.3349219656168,988.3975437674293
1533044142.819,1039.4031313401983,779.2605021281846,517.3910333466898,951.4732937515074,784.0007645860143
1533044142.823,891.8154882670443,718.552094256986,547.8331329860647,920.0767137131505,722.3961579552786
1533044142.8270001,923.212188492899,759.0312750601444,529.5703664128935,869.8306096902743,904.4001242452273
1533044142.831,1099.0645791065344,698.3021405218678,547.8331329860647,976.5995613078081,1013.600210261154
1533044142.835,1073.9446464801133,566.7499845783726,499.12826677351853,995.4362231128772,778.3982605668176
1533044142.839,970.3201010603683,576.8645981123927,553.9165664930324,932.6366319464383,803.6009270605423
1533044142.842,888.670673352984,657.8229597187094,529.5703664128935,916.9319108375347,865.1997992961712
1533044142.846,898.0922558664778,688.1875269878477,462.61519967944434,894.9504461568498,1033.2003727356819
1533044142.85,1102.2029629062513,698.3021405218678,584.3462000801389,916.9319108375347,1192.800057343951
1533044142.8539999,1183.8523906136354,728.6667077910062,584.3462000801389,973.4547584321923,1212.4002198184792
1533044142.8579998,1108.4861616200283,829.8750231324409,614.7882997195138,970.3163866463017,943.6004491942833
1533044142.8620002,970.3201010603683,951.312565541916,663.4806998797916,916.9319108375347,870.7965689202612
1533044142.8660002,948.3385522336638,971.5625192770341,614.7882997195138,882.390527923562,1016.3985950731989
1533044142.87,1177.5691918998584,1001.9270865461724,620.8717332264814,913.7935390516441,1002.4009366178674
1533044142.8739998,1215.24909083949,1072.770834618469,614.7882997195138,1011.1409442217808,965.9989964808564
1533044142.8779998,1095.9261953068178,1082.885448152489,614.7882997195138,1067.6637918164383,904.4001242452273
1533044142.8820002,1045.6798989396318,1062.6354944173706,529.5703664128935,1014.2793160076715,688.7983370254191
1533044142.885,964.0369023465911,991.7917463450743,523.4869329059259,916.9319108375347,890.3967313947892
1533044142.889,1061.3846801669026,961.447905743014,608.7048662125462,932.6366319464383,1170.3957756622715
1533044142.893,1161.8708417869311,951.312565541916,645.2179333066204,1001.7193977743837,1139.596339544457
1533044142.897,1073.9446464801133,910.8333847387577,742.6151996794443,1045.6823271357534,901.5960050380756
1533044142.901,998.5784174865062,981.6771328110542,724.3524331062731,1055.1038735831507,854.0005256528848
1533044142.905,948.3385522336638,971.5625192770341,663.4806998797916,920.0767137131505,814.8002007038288
1533044142.909,1051.9630976534088,890.6041576707174,718.2689995993055,882.390527923562,784.0007645860143
1533044142.9129999,1121.046127933239,860.2395904015792,693.9103334668981,960.8948401989045,761.5964829043346
1533044142.917,1017.4215825134938,839.989636666461,724.3524331062731,929.4918290708225,758.7980980922896
1533044142.921,932.6337710063929,860.2395904015792,815.6537999198611,951.4732937515074,876.3990729394577
1533044142.924,835.2859931860812,829.8750231324409,760.8779662526157,935.775003732329,1052.80053521021
1533044142.928,979.7352524595184,789.3958423292826,797.3910333466898,932.6366319464383,1019.1969798852439
1533044142.9320002,1171.292424300425,769.1458885941645,919.1344997996528,1017.4176877935621,1038.797142359772
1533044142.936,1152.4492592734373,698.3021405218678,919.1344997996528,1073.9405353882198,901.5960050380756
1533044142.94,1070.8062626803967,779.2605021281846,760.8779662526157,986.0211077552053,784.0007645860143
1533044142.944,932.6337710063929,931.0833384738758,602.6089666533102,841.572401437808,929.5970563438452
1533044142.948,1014.2767675994335,860.2395904015792,626.9551667334491,844.7107732236987,722.3961579552786
1533044142.9520001,1161.8708417869311,860.2395904015792,651.3138328658564,888.6737025850686,652.3963968884079
1533044142.956,1133.6060942464494,920.9479982727778,608.7048662125462,954.6180966271232,716.7993883311887
1533044142.96,1121.046127933239,991.7917463450743,675.6600329459952,942.0581783938354,823.2010895350703
1533044142.964,992.295218772729,931.0833384738758,693.9103334668981,854.1323196710958,1033.2003727356819
1533044142.967,1014.2767675994335,850.1042502004811,700.0062330261342,916.9319108375347,974.3998853120979
1533044142.971,1202.6891245262796,910.8333847387577,736.5193001202084,1039.399152474247,1117.197792257884
1533044142.975,1139.8892929602266,941.1979520078959,687.8268999599305,1004.8577695602744,1147.9972283756983
1533044142.9789999,1064.5230639666195,981.6771328110542,712.1731000400695,929.4918290708225,1002.4009366178674
1533044142.9829998,998.5784174865062,941.1979520078959,687.8268999599305,847.8491450095894,909.9968938693172
1533044142.9870002,938.91696972017,941.1979520078959,639.1344997996528,800.7478438623289,1072.400697684738
1533044142.9910002,1108.4861616200283,941.1979520078959,633.051066292685,932.6366319464383,965.9989964808564
1533044142.995,1171.292424300425,951.312565541916,633.051066292685,998.581025988493,865.1997992961712
1533044142.9989998,1073.9446464801133,971.5625192770341,657.397266372824,948.3349219656168,873.6006881274128
1533044143.0029998,970.3201010603683,1012.0417000801924,639.1344997996528,904.371992604247,1052.80053521021
1533044143.0070002,1001.7168012862229,1062.6354944173706,657.397266372824,916.9319108375347,1226.3978782738106
1533044143.01,1196.412356926846,1052.5208808833509,693.9103334668981,948.3349219656168,904.4001242452273
1533044143.014,1205.83393944034,991.7917463450743,687.8268999599305,960.8948401989045,697.1992258566606
1533044143.018,1095.9261953068178,971.5625192770341,645.2179333066204,920.0767137131505,921.1961675126038
1533044143.022,989.1568349730123,961.447905743014,578.2627665731712,888.6737025850686,1100.3960145954009
1533044143.026,954.6153198330973,910.8333847387577,499.12826677351853,857.2706914569865,772.8014909427277
1533044143.03,1089.6429965930406,961.447905743014,486.9613997595833,872.9689814761649,750.3972092610481
1533044143.034,1155.587643073154,941.1979520078959,553.9165664930324,929.4918290708225,1010.7960910540023
1533044143.0379999,1108.4861616200283,910.8333847387577,602.6089666533102,932.6366319464383,1108.7969034266423
1533044143.042,998.5784174865062,880.4688174696194,584.3462000801389,960.8948401989045,1022.0010990923954
1533044143.046,885.5322895532672,860.2395904015792,596.5255331463426,960.8948401989045,960.3964924616598
1533044143.049,1033.1199326264211,890.6041576707174,681.7434664529629,910.6551672657534,999.5968174107159
1533044143.053,1136.7444780461663,860.2395904015792,718.2689995993055,973.4547584321923,1114.399407445839
1533044143.0570002,1017.4215825134938,799.5104558633027,754.7820666933796,986.0211077552053,988.3975437674293
1533044143.061,938.91696972017,698.3021405218678,754.7820666933796,901.2336208183563,898.7976202260307
1533044143.065,866.6891245262796,667.9375732527295,736.5193001202084,869.8306096902743,820.3969703279187
1533044143.069,938.91696972017,789.3958423292826,797.3910333466898,885.5353307991778,666.399789738846
1533044143.073,1117.907744133522,860.2395904015792,821.7372334268288,973.4547584321923,781.1966453788626
1533044143.0770001,1070.8062626803967,860.2395904015792,791.3075998397222,932.6366319464383,1016.3985950731989
1533044143.081,982.8800673735789,900.7187712047375,785.2241663327545,904.371992604247,1030.3962535285302
1533044143.085,973.458484860085,910.8333847387577,700.0062330261342,885.5353307991778,1077.997467308828
1533044143.089,1039.4031313401983,890.6041576707174,706.0896665331019,841.572401437808,1195.598442155996
1533044143.092,1171.292424300425,839.989636666461,700.0062330261342,907.5103643901376,1156.39811720694
1533044143.096,1136.7444780461663,759.0312750601444,602.6089666533102,935.775003732329,982.8007741433394
1533044143.1,1020.5599663132106,738.7813213250262,645.2179333066204,882.390527923562,797.9984230413456
1533044143.1039999,891.8154882670443,748.9166615261242,626.9551667334491,778.766379181644,898.7976202260307
1533044143.1079998,913.7906059794051,728.6667077910062,596.5255331463426,807.0310185238353,921.1961675126038
1533044143.1120002,1051.9630976534088,698.3021405218678,553.9165664930324,920.0767137131505,915.5993978885137
1533044143.1160002,1014.2767675994335,667.9375732527295,535.6537999198611,923.2150854990412,856.7989104649297
1533044143.12,942.0553535198867,698.3021405218678,572.1793330662036,894.9504461568498,775.5998757547727
1533044143.1239998,854.129158213069,748.9166615261242,590.4420996393749,879.2521561376714,985.5991589553844
1533044143.1279998,904.375454580255,779.2605021281846,651.3138328658564,894.9504461568498,1077.997467308828
1533044143.131,1124.1845117329556,900.7187712047375,651.3138328658564,938.9133755182196,1279.595861678198
1533044143.135,1183.8523906136354,839.989636666461,651.3138328658564,1008.0025724358902,1405.5977253566077
1533044143.139,1095.9261953068178,880.4688174696194,693.9103334668981,1061.380617154932,1237.597151917097
1533044143.143,998.5784174865062,1173.958423292826,596.5255331463426,973.4547584321923,996.7984325986708
1533044143.147,986.0184511732956,1254.9375115662206,511.3075998397222,866.6922379043837,926.7986715318003
1533044143.151,1149.3108754737204,1173.958423292826,590.4420996393749,929.4918290708225,952.0013380255249
1533044143.155,1212.1107070397734,1143.6145826907655,657.397266372824,982.8763048795895,741.9963204298066
1533044143.159,1086.504612793324,1153.7291962247855,681.7434664529629,967.178014860411,411.5976775699818
1533044143.1629999,904.375454580255,1082.885448152489,687.8268999599305,923.2150854990412,434.00195925166145
1533044143.167,935.7721548061096,1042.4062673493306,779.1282667735186,869.8306096902743,767.1989869235312
1533044143.171,1155.587643073154,1032.2916538153106,766.9613997595833,913.7935390516441,1069.5965784775863
1533044143.174,1165.0092255866477,991.7917463450743,645.2179333066204,1001.7193977743837,1016.3985950731989
1533044143.178,1058.2398652528423,981.6771328110542,651.3138328658564,1033.1224089024658,1083.5999713280244
1533044143.1820002,945.1937373196034,991.7917463450743,614.7882997195138,957.7564684130139,1251.6005447675352
1533044143.186,904.375454580255,1032.2916538153106,535.6537999198611,832.150854990411,1061.1956896463448
1533044143.19,1064.5230639666195,1052.5208808833509,578.2627665731712,860.4090632428771,652.3963968884079
1533044143.194,1136.7444780461663,1012.0417000801924,596.5255331463426,945.1965501797262,565.600592554161
1533044143.198,1067.661447766336,1022.1563136142125,639.1344997996528,938.9133755182196,632.7962344138799
1533044143.2020001,979.7352524595184,991.7917463450743,669.5641333867593,901.2336208183563,971.6015005000529
1533044143.206,879.2490908394901,900.7187712047375,608.7048662125462,885.5353307991778,1038.797142359772
1533044143.21,1011.1383837997167,880.4688174696194,596.5255331463426,926.3534572849319,741.9963204298066
1533044143.214,1146.16606055966,900.7187712047375,657.397266372824,986.0211077552053,753.2013284681997
1533044143.217,1070.8062626803967,961.447905743014,712.1731000400695,979.7379330936988,1245.9980407483386
1533044143.221,979.7352524595184,971.5625192770341,657.397266372824,907.5103643901376,1167.5973908502265
1533044143.225,920.0738046931823,920.9479982727778,669.5641333867593,894.9504461568498,971.6015005000529
1533044143.2289999,1008.0,941.1979520078959,712.1731000400695,932.6366319464383,1022.0010990923954
1533044143.2329998,1130.4677104467328,991.7917463450743,693.9103334668981,926.3534572849319,1083.5999713280244
1533044143.2370002,1092.787811507101,1012.0417000801924,742.6151996794443,932.6366319464383,988.3975437674293
1533044143.2410002,982.8800673735789,981.6771328110542,724.3524331062731,942.0581783938354,786.7991493980592
1533044143.245,907.5138383799716,890.6041576707174,584.3462000801389,910.6551672657534,775.5998757547727
1533044143.2489998,976.5968686598017,718.552094256986,566.095899559236,854.1323196710958,769.9973717355762
1533044143.2529998,1080.2214140795468,657.8229597187094,590.4420996393749,882.390527923562,817.5985855158737
1533044143.256,1029.9815488267045,759.0312750601444,614.7882997195138,913.7935390516441,907.1985090572723
1533044143.26,951.4769360333805,759.0312750601444,645.2179333066204,885.5353307991778,828.7978591591602
1533044143.264,832.1476093863645,688.1875269878477,541.7372334268288,819.5909367571231,1024.7994839044404
1533044143.268,894.953872066761,617.3437789155511,462.61519967944434,854.1323196710958,1357.99651157631
1533044143.272,1130.4677104467328,586.9792116464129,426.0896665331018,942.0581783938354,1209.5961006113275
1533044143.276,1067.661447766336,566.7499845783726,353.0510662926851,945.1965501797262,1058.3973048342998
1533044143.28,907.5138383799716,617.3437789155511,450.4358666132407,904.371992604247,971.6015005000529
1533044143.284,879.2490908394901,637.5937326506692,462.61519967944434,869.8306096902743,778.3982605668176
1533044143.2879999,942.0553535198867,576.8645981123927,353.0510662926851,894.9504461568498,1044.3996463789683
1533044143.292,1158.7260268728708,607.229165381531,316.5255331463425,935.775003732329,1296.397639340681
1533044143.296,1149.3108754737204,617.3437789155511,304.3462000801389,954.6180966271232,814.8002007038288
1533044143.299,1023.6983501129273,607.229165381531,328.70486621254616,945.1965501797262,825.9994743471152
1533044143.303,973.458484860085,566.7499845783726,249.57036641289346,898.0952490324656,971.6015005000529
1533044143.3070002,976.5968686598017,576.8645981123927,243.48693290592584,872.9689814761649,758.7980980922896
1533044143.311,1124.1845117329556,607.229165381531,322.6089666533102,935.775003732329,865.1997992961712
1533044143.315,1152.4492592734373,536.3854173092344,328.70486621254616,976.5995613078081,1016.3985950731989
1533044143.319,1029.9815488267045,516.1354635741162,340.87173322648147,929.4918290708225,957.5981076496148
1533044143.323,938.91696972017,566.7499845783726,389.5641333867593,876.1137843517807,1022.0010990923954
1533044143.3270001,920.0738046931823,536.3854173092344,395.6600329459953,857.2706914569865,887.5983465827443
1533044143.331,1029.9815488267045,475.6562827709579,438.26899959930546,910.6551672657534,646.799627264318
1533044143.335,1070.8062626803967,546.5000308432545,432.17310004006947,951.4732937515074,909.9968938693172
1533044143.339,998.5784174865062,647.7083461846893,480.87796625261564,869.8306096902743,999.5968174107159
1533044143.342,904.375454580255,738.7813213250262,511.3075998397222,888.6737025850686,781.1966453788626
1533044143.346,838.4308081001417,738.7813213250262,462.61519967944434,872.9689814761649,1013.600210261154
1533044143.35,1004.8616162002833,627.4583924495712,493.04483326655094,794.4646692008224,1136.7979547324119
1533044143.3539999,1099.0645791065344,667.9375732527295,462.61519967944434,888.6737025850686,1077.997467308828
1533044143.3579998,976.5968686598017,728.6667077910062,511.3075998397222,935.775003732329,1030.3962535285302
1533044143.3620002,869.8339394403399,748.9166615261242,547.8331329860647,888.6737025850686,1203.9993309872375
1533044143.3660002,810.1660605596601,789.3958423292826,547.8331329860647,863.5538661184929,1234.798767105052
1533044143.37,964.0369023465911,779.2605021281846,675.6600329459952,954.6180966271232,1265.5982032228667
1533044143.3739998,1117.907744133522,748.9166615261242,693.9103334668981,1089.6452564971235,1268.3965880349115
1533044143.3779998,1133.6060942464494,718.552094256986,675.6600329459952,1080.2237100497262,1080.795852120873
1533044143.381,1020.5599663132106,769.1458885941645,651.3138328658564,1017.4176877935621,699.9976106687055
1533044143.385,863.5507407265628,799.5104558633027,633.051066292685,932.6366319464383,671.996559362936
1533044143.389,1023.6983501129273,829.8750231324409,718.2689995993055,926.3534572849319,1077.997467308828
1533044143.393,1202.6891245262796,839.989636666461,645.2179333066204,1026.8392342409593,999.5968174107159
1533044143.397,1146.16606055966,779.2605021281846,560.0,1039.399152474247,714.0010035191436
1533044143.401,1058.2398652528423,809.6250693973228,547.8331329860647,982.8763048795895,965.9989964808564
1533044143.405,938.91696972017,789.3958423292826,456.51930012020836,951.4732937515074,912.8010130764688
1533044143.409,1020.5599663132106,809.6250693973228,462.61519967944434,967.178014860411,714.0010035191436
1533044143.4129999,1224.670673352984,799.5104558633027,486.9613997595833,1001.7193977743837,1153.599732394895
1533044143.417,1161.8708417869311,738.7813213250262,480.87796625261564,986.0211077552053,1047.1980311910133
1533044143.421,1008.0,839.989636666461,535.6537999198611,935.775003732329,607.599302315262
1533044143.424,960.8985185468744,880.4688174696194,553.9165664930324,898.0952490324656,638.3987384330766
1533044143.428,1026.8431650269877,961.447905743014,596.5255331463426,910.6551672657534,898.7976202260307
1533044143.4320002,1180.707575699575,931.0833384738758,584.3462000801389,970.3163866463017,907.1985090572723
1533044143.436,1124.1845117329556,829.8750231324409,602.6089666533102,1014.2793160076715,1077.997467308828
1533044143.44,1014.2767675994335,870.3542039355992,547.8331329860647,995.4362231128772,1142.4004587516085
1533044143.444,948.3385522336638,809.6250693973228,480.87796625261564,904.371992604247,702.7959954807505
1533044143.448,951.4769360333805,759.0312750601444,560.0,863.5538661184929,730.7970467865201
1533044143.4520001,1165.0092255866477,779.2605021281846,590.4420996393749,926.3534572849319,943.6004491942833
1533044143.456,1161.8708417869311,829.8750231324409,572.1793330662036,970.3163866463017,789.5975342101042
1533044143.46,1023.6983501129273,769.1458885941645,547.8331329860647,995.4362231128772,753.2013284681997
1533044143.4629998,923.212188492899,647.7083461846893,553.9165664930324,938.9133755182196,901.5960050380756
1533044143.467,926.3570034069594,657.8229597187094,602.6089666533102,876.1137843517807,714.0010035191436
1533044143.471,1139.8892929602266,657.8229597187094,639.1344997996528,945.1965501797262,492.7967122801389
1533044143.475,1177.5691918998584,617.3437789155511,633.051066292685,1008.0025724358902,403.1967887387403
1533044143.4789999,1111.6245454197451,566.7499845783726,712.1731000400695,1029.97760602685,719.5977731432336
1533044143.4829998,1011.1383837997167,566.7499845783726,700.0062330261342,948.3349219656168,887.5983465827443
1533044143.4870002,970.3201010603683,617.3437789155511,651.3138328658564,907.5103643901376,792.4016534172557
1533044143.4910002,1130.4677104467328,657.8229597187094,633.051066292685,957.7564684130139,935.1995603630418
1533044143.495,1133.6060942464494,637.5937326506692,620.8717332264814,998.581025988493,954.7997228375698
1533044143.4989998,1017.4215825134938,637.5937326506692,657.397266372824,979.7379330936988,901.5960050380756
1533044143.5029998,916.9354208934656,627.4583924495712,535.6537999198611,882.390527923562,845.5996368216432
1533044143.506,888.670673352984,667.9375732527295,456.51930012020836,854.1323196710958,1083.5999713280244
1533044143.51,1055.1014814531256,759.0312750601444,474.78206669337965,898.0952490324656,1335.597964289737
1533044143.514,1171.292424300425,637.5937326506692,346.95516673344906,929.4918290708225,1147.9972283756983
1533044143.518,1067.661447766336,637.5937326506692,383.48069987979164,907.5103643901376,994.0000477866259
1533044143.522,942.0553535198867,738.7813213250262,486.9613997595833,866.6922379043837,932.4011755509969
1533044143.526,901.2306396661945,779.2605021281846,474.78206669337965,844.7107732236987,1063.9998088534965
1533044143.53,1055.1014814531256,870.3542039355992,523.4869329059259,854.1323196710958,834.4003631783568
1533044143.534,1152.4492592734373,931.0833384738758,639.1344997996528,957.7564684130139,699.9976106687055
1533044143.5379999,1073.9446464801133,931.0833384738758,724.3524331062731,1029.97760602685,1058.3973048342998
1533044143.542,995.4400336867894,900.7187712047375,687.8268999599305,1008.0025724358902,1251.6005447675352
1533044143.546,970.3201010603683,850.1042502004811,645.2179333066204,926.3534572849319,1069.5965784775863
1533044143.549,1114.7629292194617,789.3958423292826,645.2179333066204,904.371992604247,1092.000860159266
1533044143.553,1196.412356926846,678.0729134538276,547.8331329860647,976.5995613078081,879.1974577515027
1533044143.5570002,1089.6429965930406,667.9375732527295,541.7372334268288,1017.4176877935621,831.5962439712051
1533044143.561,1026.8431650269877,728.6667077910062,578.2627665731712,951.4732937515074,952.0013380255249
1533044143.565,982.8800673735789,728.6667077910062,505.2241663327546,850.98751679548,848.3980216336882
1533044143.569,1001.7168012862229,748.9166615261242,523.4869329059259,879.2521561376714,1117.197792257884
1533044143.573,1155.587643073154,688.1875269878477,596.5255331463426,1008.0025724358902,1220.8011086497206
1533044143.5770001,1139.8892929602266,667.9375732527295,657.397266372824,1048.8206989216442,884.7999617706993
1533044143.581,1036.258316426138,647.7083461846893,645.2179333066204,998.581025988493,758.7980980922896
1533044143.585,982.8800673735789,728.6667077910062,590.4420996393749,935.775003732329,954.7997228375698
1533044143.5879998,1067.661447766336,829.8750231324409,614.7882997195138,904.371992604247,1024.7994839044404
1533044143.592,1183.8523906136354,829.8750231324409,620.8717332264814,945.1965501797262,1139.596339544457
1533044143.596,1108.4861616200283,850.1042502004811,523.4869329059259,970.3163866463017,1240.395536729142
1533044143.6,1042.541515139915,880.4688174696194,511.3075998397222,960.8948401989045,1086.3983561400694
1533044143.6039999,979.7352524595184,799.5104558633027,511.3075998397222,942.0581783938354,949.1972188183732
1533044143.6079998,1001.7168012862229,759.0312750601444,480.87796625261564,1008.0025724358902,811.9960814966771
1533044143.6120002,1158.7260268728708,779.2605021281846,450.4358666132407,1026.8392342409593,613.2018063344586
1533044143.6160002,1155.587643073154,819.7604095984208,462.61519967944434,954.6180966271232,929.5970563438452
1533044143.62,1008.0,839.989636666461,511.3075998397222,976.5995613078081,996.7984325986708
1533044143.6239998,898.0922558664778,759.0312750601444,450.4358666132407,916.9319108375347,677.5990633821326
1533044143.6279998,894.953872066761,688.1875269878477,450.4358666132407,822.7293085430138,719.5977731432336
1533044143.631,1070.8062626803967,657.8229597187094,499.12826677351853,888.6737025850686,727.9986619744751
1533044143.635,1143.0276767599432,627.4583924495712,468.698633186412,964.0396430745204,784.0007645860143
1533044143.639,1055.1014814531256,607.229165381531,505.2241663327546,942.0581783938354,946.3988340063283
1533044143.643,957.753703632814,546.5000308432545,517.3910333466898,916.9319108375347,1022.0010990923954
1533044143.647,942.0553535198867,445.2917155018197,486.9613997595833,891.8120743709592,649.598012076363
1533044143.651,1143.0276767599432,455.40632903583975,602.6089666533102,954.6180966271232,719.5977731432336
1533044143.655,1190.1291582130689,465.54166923693776,651.3138328658564,1029.97760602685,971.6015005000529
1533044143.659,1045.6798989396318,475.6562827709579,608.7048662125462,1008.0025724358902,1119.996177069929
1533044143.6629999,945.1937373196034,465.54166923693776,596.5255331463426,970.3163866463017,1100.3960145954009
1533044143.667,910.6522221796884,566.7499845783726,566.095899559236,954.6180966271232,932.4011755509969
1533044143.671,1089.6429965930406,637.5937326506692,602.6089666533102,976.5995613078081,834.4003631783568
1533044143.674,1196.412356926846,718.552094256986,608.7048662125462,998.581025988493,828.7978591591602
1533044143.678,1139.8892929602266,951.312565541916,535.6537999198611,992.2978513269866,1038.797142359772
1533044143.6820002,1168.1476093863646,981.6771328110542,626.9551667334491,1042.543955349863,994.0000477866259
1533044143.686,1039.4031313401983,759.0312750601444,888.6924001602778,1004.8577695602744,1041.6012615669235
1533044143.69,1039.4031313401983,748.9166615261242,967.8268999599305,976.5995613078081,1089.1967409521144
1533044143.694,1152.4492592734373,870.3542039355992,906.9551667334491,1051.959070707535,786.7991493980592
1533044143.698,1080.2214140795468,910.8333847387577,913.051066292685,998.581025988493,867.9981841082163
1533044143.7020001,1011.1383837997167,991.7917463450743,931.301366813588,932.6366319464383,1133.999569920367
1533044143.706,929.4953872066761,1042.4062673493306,913.051066292685,891.8120743709592,1027.5978687164854
1533044143.71,1033.1199326264211,1072.770834618469,894.7882997195138,882.390527923562,1167.5973908502265
1533044143.7129998,1190.1291582130689,1042.4062673493306,809.5703664128935,929.4918290708225,1103.2001338025525
1533044143.717,1174.4308081001416,1042.4062673493306,657.397266372824,929.4918290708225,1265.5982032228667
1533044143.721,1099.0645791065344,1072.770834618469,584.3462000801389,954.6180966271232,982.8007741433394
1533044143.725,957.753703632814,1012.0417000801924,626.9551667334491,932.6366319464383,529.1986524171499
1533044143.7289999,1029.9815488267045,1012.0417000801924,754.7820666933796,945.1965501797262,1041.6012615669235
1533044143.7329998,1199.5507407265627,920.9479982727778,791.3075998397222,1036.2607806883564,1313.1994170031642
1533044143.7370002,1158.7260268728708,880.4688174696194,766.9613997595833,1061.380617154932,1061.1956896463448
1533044143.7410002,1089.6429965930406,941.1979520078959,785.2241663327545,1039.399152474247,985.5991589553844
1533044143.745,1004.8616162002833,890.6041576707174,779.1282667735186,989.159479541096,1063.9998088534965
1533044143.7489998,1139.8892929602266,870.3542039355992,742.6151996794443,1004.8577695602744,817.5985855158737
1533044143.7529998,1334.5784174865062,900.7187712047375,730.4358666132407,1042.543955349863,1049.9964160030584
1533044143.756,1193.2675420127857,829.8750231324409,724.3524331062731,1045.6823271357534,1122.8002962770804
1533044143.76,1070.8062626803967,860.2395904015792,730.4358666132407,1042.543955349863,926.7986715318003
1533044143.764,967.1752861463078,920.9479982727778,736.5193001202084,951.4732937515074,1047.1980311910133
1533044143.768,1020.5599663132106,941.1979520078959,815.6537999198611,951.4732937515074,1159.196502018985
1533044143.772,1240.3754545802549,920.9479982727778,815.6537999198611,1048.8206989216442,1044.3996463789683
1533044143.776,1208.9723232400568,941.1979520078959,833.9165664930324,1077.0853382638356,624.4010799777451
1533044143.78,1092.787811507101,951.312565541916,906.9551667334491,1042.543955349863,784.0007645860143
1533044143.784,967.1752861463078,870.3542039355992,852.1793330662036,938.9133755182196,489.9983274680939
1533044143.7879999,970.3201010603683,880.4688174696194,840.0,901.2336208183563,434.00195925166145
1533044143.792,1136.7444780461663,880.4688174696194,882.6089666533102,916.9319108375347,1022.0010990923954
1533044143.795,1171.292424300425,839.989636666461,888.6924001602778,923.2150854990412,1162.0006212261364
1533044143.799,1051.9630976534088,819.7604095984208,967.8268999599305,923.2150854990412,1136.7979547324119
1533044143.803,882.3939057535505,819.7604095984208,937.397266372824,888.6737025850686,1002.4009366178674
1533044143.8070002,869.8339394403399,789.3958423292826,925.2179333066204,898.0952490324656,929.5970563438452
1533044143.811,1080.2214140795468,870.3542039355992,992.1731000400695,938.9133755182196,1092.000860159266
1533044143.815,1130.4677104467328,870.3542039355992,1004.3524331062731,986.0211077552053,1075.199082496783
1533044143.819,1011.1383837997167,829.8750231324409,998.2689995993055,992.2978513269866,823.2010895350703
1533044143.823,951.4769360333805,951.312565541916,967.8268999599305,982.8763048795895,1019.1969798852439
1533044143.8270001,948.3385522336638,1052.5208808833509,913.051066292685,954.6180966271232,890.3967313947892
1533044143.831,1111.6245454197451,1032.2916538153106,791.3075998397222,932.6366319464383,688.7983370254191
1533044143.835,1190.1291582130689,1032.2916538153106,754.7820666933796,1001.7193977743837,755.9997132802447
1533044143.8379998,1108.4861616200283,1153.7291962247855,809.5703664128935,995.4362231128772,912.8010130764688
1533044143.842,1080.2214140795468,1173.958423292826,827.8331329860647,960.8948401989045,895.9992354139857
1533044143.846,1039.4031313401983,1173.958423292826,833.9165664930324,948.3349219656168,820.3969703279187
1533044143.85,1114.7629292194617,1153.7291962247855,931.301366813588,957.7564684130139,1145.1988435636536
1533044143.8539999,1218.3939057535506,1093.000061686509,919.1344997996528,986.0211077552053,1178.796664493513
1533044143.8579998,1146.16606055966,1082.885448152489,913.051066292685,1001.7193977743837,1114.399407445839
1533044143.8620002,998.5784174865062,1012.0417000801924,931.301366813588,1011.1409442217808,1128.3970659011704
1533044143.8660002,907.5138383799716,971.5625192770341,906.9551667334491,932.6366319464383,1072.400697684738
1533044143.87,1033.1199326264211,961.447905743014,992.1731000400695,920.0767137131505,979.9966549361878
1533044143.8739998,1196.412356926846,961.447905743014,1046.9613997595832,1011.1409442217808,792.4016534172557
1533044143.8779998,1152.4492592734373,1001.9270865461724,1016.5193001202084,1064.5254200305478,753.2013284681997
1533044143.881,1045.6798989396318,1072.770834618469,986.0896665331019,1014.2793160076715,820.3969703279187
1533044143.885,948.3385522336638,1113.2500154216273,1016.5193001202084,923.2150854990412,1010.7960910540023
1533044143.889,995.4400336867894,1103.1146752205293,1095.653799919861,951.4732937515074,996.7984325986708
1533044143.893,1161.8708417869311,1052.5208808833509,1113.9165664930324,986.0211077552053,607.599302315262
1533044143.897,1136.7444780461663,1032.2916538153106,1168.6924001602779,976.5995613078081,467.5997801815209
1533044143.901,1033.1199326264211,1082.885448152489,1229.5641333867593,964.0396430745204,655.2005160955596
1533044143.905,938.91696972017,1093.000061686509,1168.6924001602779,913.7935390516441,809.1976966846322
1533044143.909,942.0553535198867,1082.885448152489,1211.301366813588,916.9319108375347,750.3972092610481
1533044143.9129999,1124.1845117329556,1072.770834618469,1150.4420996393749,967.178014860411,767.1989869235312
1533044143.917,1152.4492592734373,1022.1563136142125,1077.3910333466897,998.581025988493,842.8012520095983
1533044143.92,1055.1014814531256,981.6771328110542,1053.044833266551,1011.1409442217808,1338.396349101782
1533044143.924,998.5784174865062,920.9479982727778,906.9551667334491,970.3163866463017,1453.1989391369052
1533044143.928,1033.1199326264211,981.6771328110542,858.2627665731712,960.8948401989045,1058.3973048342998
1533044143.9320002,1205.83393944034,1042.4062673493306,846.0834335069676,986.0211077552053,901.5960050380756
1533044143.936,1168.1476093863646,1082.885448152489,894.7882997195138,992.2978513269866,1167.5973908502265
1533044143.94,1058.2398652528423,1234.6875578311024,1004.3524331062731,979.7379330936988,1279.595861678198
1533044143.944,998.5784174865062,1214.458330763062,961.7434664529629,907.5103643901376,940.7963299871318
1533044143.948,1011.1383837997167,1133.4792424896675,894.7882997195138,894.9504461568498,991.1959285794743
1533044143.9520001,1199.5507407265627,1103.1146752205293,949.5641333867593,982.8763048795895,1133.999569920367
1533044143.956,1243.5138383799717,1103.1146752205293,1040.8779662526156,1029.97760602685,1240.395536729142
1533044143.96,1143.0276767599432,1072.770834618469,1016.5193001202084,973.4547584321923,1273.9990920541081
1533044143.9629998,1092.787811507101,1022.1563136142125,925.2179333066204,907.5103643901376,1063.9998088534965
1533044143.967,1086.504612793324,951.312565541916,864.3462000801389,898.0952490324656,943.6004491942833
1533044143.971,1208.9723232400568,809.6250693973228,809.5703664128935,973.4547584321923,890.3967313947892
1533044143.975,1215.24909083949,738.7813213250262,833.9165664930324,1036.2607806883564,963.2006116688113
1533044143.9789999,1033.1199326264211,728.6667077910062,925.2179333066204,1042.543955349863,1105.9985186145975
1533044143.9829998,929.4953872066761,718.552094256986,913.051066292685,995.4362231128772,895.9992354139857
1533044143.9870002,876.1107070397734,718.552094256986,900.8717332264814,945.1965501797262,730.7970467865201
1533044143.9910002,960.8985185468744,667.9375732527295,937.397266372824,989.159479541096,865.1997992961712
1533044143.995,1070.8062626803967,627.4583924495712,913.051066292685,982.8763048795895,504.001720318532
1533044143.9989998,998.5784174865062,657.8229597187094,840.0,964.0396430745204,442.3971136877963
1533044144.0029998,879.2490908394901,617.3437789155511,736.5193001202084,910.6551672657534,825.9994743471152
1533044144.006,822.7260268728706,566.7499845783726,760.8779662526157,829.0060521147951,1072.400697684738
1533044144.01,973.458484860085,667.9375732527295,791.3075998397222,869.8306096902743,960.3964924616598
1533044144.014,1092.787811507101,728.6667077910062,718.2689995993055,954.6180966271232,946.3988340063283
1533044144.018,1033.1199326264211,698.3021405218678,669.5641333867593,948.3349219656168,1072.400697684738
1533044144.022,970.3201010603683,698.3021405218678,730.4358666132407,901.2336208183563,898.7976202260307
1533044144.026,838.4308081001417,748.9166615261242,760.8779662526157,847.8491450095894,985.5991589553844
1533044144.03,938.91696972017,789.3958423292826,706.0896665331019,904.371992604247,867.9981841082163
1533044144.034,1121.046127933239,708.416754055888,693.9103334668981,1001.7193977743837,1103.2001338025525
1533044144.0379999,1083.3662289936071,657.8229597187094,620.8717332264814,992.2978513269866,1122.8002962770804
1533044144.042,1011.1383837997167,718.552094256986,590.4420996393749,948.3349219656168,991.1959285794743
1533044144.045,879.2490908394901,667.9375732527295,572.1793330662036,844.7107732236987,954.7997228375698
1533044144.049,964.0369023465911,728.6667077910062,572.1793330662036,850.98751679548,921.1961675126038
1533044144.053,1161.8708417869311,880.4688174696194,663.4806998797916,929.4918290708225,957.5981076496148
1533044144.0570002,1089.6429965930406,910.8333847387577,718.2689995993055,923.2150854990412,851.1964064457331
1533044144.061,998.5784174865062,910.8333847387577,736.5193001202084,894.9504461568498,985.5991589553844
1533044144.065,929.4953872066761,951.312565541916,730.4358666132407,829.0060521147951,1108.7969034266423
1533044144.069,964.0369023465911,981.6771328110542,815.6537999198611,844.7107732236987,1013.600210261154
1533044144.073,1158.7260268728708,910.8333847387577,864.3462000801389,926.3534572849319,918.3977827005588
1533044144.0770001,1174.4308081001416,910.8333847387577,858.2627665731712,989.159479541096,1058.3973048342998
1533044144.081,1092.787811507101,951.312565541916,809.5703664128935,998.581025988493,1201.2009461751925
1533044144.085,1036.258316426138,951.312565541916,675.6600329459952,995.4362231128772,1108.7969034266423
1533044144.0879998,1055.1014814531256,961.447905743014,700.0062330261342,945.1965501797262,1108.7969034266423
1533044144.092,1186.9907744133523,941.1979520078959,773.0448332665509,932.6366319464383,1579.200802815315
1533044144.096,1199.5507407265627,920.9479982727778,815.6537999198611,982.8763048795895,1537.1963586591073
1533044144.1,1105.3477778203116,910.8333847387577,858.2627665731712,957.7564684130139,1215.198604630524
1533044144.1039999,1004.8616162002833,1001.9270865461724,754.7820666933796,882.390527923562,921.1961675126038
1533044144.1079998,995.4400336867894,1052.5208808833509,681.7434664529629,872.9689814761649,761.5964829043346
1533044144.1120002,1186.9907744133523,981.6771328110542,633.051066292685,910.6551672657534,884.7999617706993
1533044144.1160002,1202.6891245262796,971.5625192770341,651.3138328658564,970.3163866463017,904.4001242452273
1533044144.12,1011.1383837997167,1012.0417000801924,693.9103334668981,979.7379330936988,854.0005256528848
1533044144.1239998,894.953872066761,1032.2916538153106,639.1344997996528,910.6551672657534,691.5967218374641
1533044144.127,894.953872066761,1042.4062673493306,706.0896665331019,829.0060521147951,834.4003631783568
1533044144.131,1077.08303027983,1062.6354944173706,779.1282667735186,857.2706914569865,1097.5976297833558
1533044144.135,1193.2675420127857,1103.1146752205293,681.7434664529629,954.6180966271232,1080.795852120873
1533044144.139,1092.787811507101,1113.2500154216273,608.7048662125462,973.4547584321923,977.1982701241428
1533044144.143,992.295218772729,1082.885448152489,608.7048662125462,879.2521561376714,551.5971997037229
1533044144.147,951.4769360333805,1103.1146752205293,663.4806998797916,810.169390309726,828.7978591591602
1533044144.151,1061.3846801669026,1143.6145826907655,657.397266372824,879.2521561376714,1159.196502018985
1533044144.155,1168.1476093863646,1163.8438097588057,633.051066292685,945.1965501797262,758.7980980922896
1533044144.159,1127.329326647016,1143.6145826907655,730.4358666132407,986.0211077552053,881.9958425635476
1533044144.1629999,1064.5230639666195,1093.000061686509,748.698633186412,1008.0025724358902,1248.7964255603836
1533044144.167,1014.2767675994335,1103.1146752205293,706.0896665331019,920.0767137131505,1335.597964289737
1533044144.17,1127.329326647016,1103.1146752205293,712.1731000400695,910.6551672657534,1357.99651157631
1533044144.174,1252.9354208934656,1133.4792424896675,687.8268999599305,998.581025988493,1296.397639340681
1533044144.178,1155.587643073154,1244.8021713651224,687.8268999599305,1017.4176877935621,1125.5986810891254
1533044144.1820002,1036.258316426138,1315.645919437419,700.0062330261342,986.0211077552053,1248.7964255603836
1533044144.186,942.0553535198867,1335.8958731725372,669.5641333867593,885.5353307991778,879.1974577515027
1533044144.19,1058.2398652528423,1315.645919437419,675.6600329459952,882.390527923562,618.7985759585486
1533044144.194,1215.24909083949,1265.0521251002406,706.0896665331019,951.4732937515074,968.7973812929013
1533044144.198,1102.2029629062513,1315.645919437419,657.397266372824,964.0396430745204,887.5983465827443
1533044144.2020001,1017.4215825134938,1376.3750539756954,596.5255331463426,960.8948401989045,854.0005256528848
1533044144.206,964.0369023465911,1265.0521251002406,590.4420996393749,926.3534572849319,803.6009270605423
1533044144.21,954.6153198330973,1224.5729442970821,608.7048662125462,879.2521561376714,797.9984230413456
1533044144.2129998,1095.9261953068178,1173.958423292826,553.9165664930324,923.2150854990412,999.5968174107159
1533044144.217,1077.08303027983,1133.4792424896675,511.3075998397222,948.3349219656168,968.7973812929013
1533044144.221,970.3201010603683,1153.7291962247855,590.4420996393749,920.0767137131505,1162.0006212261364
1533044144.225,894.953872066761,1143.6145826907655,523.4869329059259,866.6922379043837,1215.198604630524
1533044144.2289999,926.3570034069594,1103.1146752205293,505.2241663327546,913.7935390516441,848.3980216336882
1533044144.2329998,1099.0645791065344,1032.2916538153106,620.8717332264814,1014.2793160076715,926.7986715318003
1533044144.2370002,1083.3662289936071,1001.9270865461724,663.4806998797916,1055.1038735831507,1139.596339544457
1533044144.2410002,1014.2767675994335,961.447905743014,687.8268999599305,1077.0853382638356,996.7984325986708
1533044144.245,923.212188492899,910.8333847387577,693.9103334668981,1014.2793160076715,999.5968174107159
1533044144.2489998,913.7906059794051,870.3542039355992,675.6600329459952,923.2150854990412,901.5960050380756
1533044144.252,1083.3662289936071,839.989636666461,572.1793330662036,960.8948401989045,912.8010130764688
1533044144.256,1111.6245454197451,839.989636666461,486.9613997595833,1004.8577695602744,932.4011755509969
1533044144.26,1058.2398652528423,839.989636666461,572.1793330662036,1004.8577695602744,669.198174550891
1533044144.264,1014.2767675994335,829.8750231324409,572.1793330662036,976.5995613078081,520.7977635859085
1533044144.268,992.295218772729,870.3542039355992,566.095899559236,935.775003732329,389.1991302834088
1533044144.272,1183.8523906136354,900.7187712047375,669.5641333867593,982.8763048795895,716.7993883311887
1533044144.276,1249.7970370937487,890.6041576707174,681.7434664529629,1061.380617154932,1122.8002962770804
1533044144.28,1077.08303027983,910.8333847387577,663.4806998797916,1045.6823271357534,1027.5978687164854
1533044144.284,929.4953872066761,951.312565541916,724.3524331062731,1017.4176877935621,1212.4002198184792
1533044144.2879999,913.7906059794051,900.7187712047375,766.9613997595833,979.7379330936988,904.4001242452273
1533044144.292,1077.08303027983,920.9479982727778,803.4869329059259,935.775003732329,655.2005160955596
1533044144.295,1139.8892929602266,971.5625192770341,815.6537999198611,992.2978513269866,971.6015005000529
1533044144.299,1070.8062626803967,920.9479982727778,742.6151996794443,1004.8577695602744,1273.9990920541081
1533044144.303,948.3385522336638,829.8750231324409,645.2179333066204,932.6366319464383,803.6009270605423
1533044144.3070002,854.129158213069,769.1458885941645,657.397266372824,876.1137843517807,666.399789738846
1533044144.311,1004.8616162002833,728.6667077910062,663.4806998797916,885.5353307991778,1128.3970659011704
1533044144.315,1111.6245454197451,698.3021405218678,657.397266372824,935.775003732329,968.7973812929013
1533044144.319,1023.6983501129273,698.3021405218678,700.0062330261342,964.0396430745204,702.7959954807505
1533044144.323,957.753703632814,728.6667077910062,760.8779662526157,1011.1409442217808,985.5991589553844
1533044144.3270001,910.6522221796884,667.9375732527295,791.3075998397222,1036.2607806883564,1173.1998948694231
1533044144.331,1055.1014814531256,759.0312750601444,760.8779662526157,1042.543955349863,856.7989104649297
1533044144.335,1177.5691918998584,951.312565541916,736.5193001202084,1033.1224089024658,999.5968174107159
1533044144.3379998,1108.4861616200283,991.7917463450743,724.3524331062731,1055.1038735831507,876.3990729394577
1533044144.342,1086.504612793324,931.0833384738758,754.7820666933796,1124.186639411096,859.5972952769747
1533044144.346,1020.5599663132106,910.8333847387577,663.4806998797916,1014.2793160076715,921.1961675126038
1533044144.35,1136.7444780461663,931.0833384738758,584.3462000801389,1014.2793160076715,694.4008410446156
1533044144.3539999,1337.7168012862228,819.7604095984208,584.3462000801389,1111.6267211778083,764.4006021114863
1533044144.3579998,1202.6891245262796,708.416754055888,620.8717332264814,1029.97760602685,957.5981076496148
1533044144.3620002,1048.8247138536922,748.9166615261242,681.7434664529629,945.1965501797262,775.5998757547727
1533044144.3660002,960.8985185468744,728.6667077910062,675.6600329459952,885.5353307991778,887.5983465827443
1533044144.37,998.5784174865062,708.416754055888,657.397266372824,882.390527923562,1330.0011946656473
1533044144.3739998,1205.83393944034,799.5104558633027,608.7048662125462,982.8763048795895,1302.0001433598777
1533044144.377,1171.292424300425,809.6250693973228,572.1793330662036,995.4362231128772,1049.9964160030584
1533044144.381,989.1568349730123,728.6667077910062,566.095899559236,945.1965501797262,837.1987479904017
1533044144.385,879.2490908394901,799.5104558633027,620.8717332264814,901.2336208183563,795.2000382293007
1533044144.389,894.953872066761,870.3542039355992,663.4806998797916,857.2706914569865,1139.596339544457
1533044144.393,1077.08303027983,769.1458885941645,608.7048662125462,916.9319108375347,1327.1970754584956
1533044144.397,1099.0645791065344,759.0312750601444,608.7048662125462,948.3349219656168,1304.7985281719227
1533044144.401,954.6153198330973,748.9166615261242,651.3138328658564,888.6737025850686,1217.996989442569
1533044144.405,885.5322895532672,698.3021405218678,590.4420996393749,847.8491450095894,834.4003631783568
1533044144.409,888.670673352984,667.9375732527295,608.7048662125462,813.3077620956167,837.1987479904017
1533044144.4129999,1008.0,678.0729134538276,669.5641333867593,841.572401437808,954.7997228375698
1533044144.417,1058.2398652528423,748.9166615261242,663.4806998797916,894.9504461568498,1033.2003727356819
1533044144.42,979.7352524595184,829.8750231324409,687.8268999599305,885.5353307991778,1167.5973908502265
1533044144.424,876.1107070397734,880.4688174696194,730.4358666132407,850.98751679548,1271.2007072420631
1533044144.428,829.0092255866477,951.312565541916,748.698633186412,847.8491450095894,1097.5976297833558
1533044144.4320002,1051.9630976534088,991.7917463450743,748.698633186412,907.5103643901376,1145.1988435636536
1533044144.436,1168.1476093863646,1012.0417000801924,675.6600329459952,938.9133755182196,965.9989964808564
1533044144.44,1061.3846801669026,991.7917463450743,633.051066292685,926.3534572849319,764.4006021114863
1533044144.444,1008.0,961.447905743014,608.7048662125462,935.775003732329,1203.9993309872375
1533044144.448,986.0184511732956,910.8333847387577,560.0,923.2150854990412,1330.0011946656473
1533044144.4520001,1130.4677104467328,829.8750231324409,474.78206669337965,932.6366319464383,1013.600210261154
1533044144.456,1240.3754545802549,809.6250693973228,450.4358666132407,979.7379330936988,784.0007645860143
1533044144.4589999,1121.046127933239,910.8333847387577,560.0,1004.8577695602744,912.8010130764688
1533044144.4629998,998.5784174865062,890.6041576707174,566.095899559236,1020.5624906691779,778.3982605668176
1533044144.467,932.6337710063929,860.2395904015792,584.3462000801389,929.4918290708225,806.3993118725872
1533044144.471,1039.4031313401983,951.312565541916,651.3138328658564,913.7935390516441,1052.80053521021
1533044144.475,1149.3108754737204,931.0833384738758,669.5641333867593,986.0211077552053,926.7986715318003
1533044144.4789999,1105.3477778203116,850.1042502004811,700.0062330261342,992.2978513269866,711.1968843119921
1533044144.4829998,1014.2767675994335,860.2395904015792,687.8268999599305,992.2978513269866,800.7968078533906
1533044144.4870002,872.9723232400567,809.6250693973228,645.2179333066204,935.775003732329,1016.3985950731989
1533044144.4910002,1001.7168012862229,728.6667077910062,693.9103334668981,869.8306096902743,772.8014909427277
1533044144.495,1152.4492592734373,769.1458885941645,760.8779662526157,913.7935390516441,876.3990729394577
1533044144.4989998,1029.9815488267045,728.6667077910062,791.3075998397222,920.0767137131505,943.6004491942833
1533044144.502,998.5784174865062,789.3958423292826,809.5703664128935,951.4732937515074,436.8003440637064
1533044144.506,989.1568349730123,900.7187712047375,779.1282667735186,923.2150854990412,834.4003631783568
1533044144.51,1023.6983501129273,941.1979520078959,754.7820666933796,891.8120743709592,943.6004491942833
1533044144.514,1177.5691918998584,971.5625192770341,773.0448332665509,945.1965501797262,587.999139840734
1533044144.518,1099.0645791065344,1001.9270865461724,754.7820666933796,970.3163866463017,1133.999569920367
1533044144.522,1001.7168012862229,941.1979520078959,645.2179333066204,926.3534572849319,1153.599732394895
1533044144.526,894.953872066761,951.312565541916,572.1793330662036,825.8676803289044,800.7968078533906
1533044144.53,907.5138383799716,971.5625192770341,584.3462000801389,844.7107732236987,1022.0010990923954
1533044144.534,1102.2029629062513,850.1042502004811,572.1793330662036,926.3534572849319,1201.2009461751925
1533044144.5379999,1051.9630976534088,819.7604095984208,572.1793330662036,916.9319108375347,1293.599254528636
1533044144.542,957.753703632814,860.2395904015792,541.7372334268288,879.2521561376714,1245.9980407483386
1533044144.545,882.3939057535505,870.3542039355992,462.61519967944434,816.4461338815073,862.4014144841263
1533044144.549,904.375454580255,839.989636666461,486.9613997595833,816.4461338815073,814.8002007038288
1533044144.553,1108.4861616200283,809.6250693973228,523.4869329059259,891.8120743709592,1192.800057343951
1533044144.5570002,1146.16606055966,900.7187712047375,547.8331329860647,910.6551672657534,1254.39892957958
1533044144.561,998.5784174865062,900.7187712047375,596.5255331463426,907.5103643901376,1147.9972283756983
1533044144.565,879.2490908394901,920.9479982727778,608.7048662125462,857.2706914569865,1117.197792257884
1533044144.569,938.91696972017,971.5625192770341,633.051066292685,791.3262974149318,1117.197792257884
1533044144.573,1121.046127933239,900.7187712047375,681.7434664529629,885.5353307991778,1080.795852120873
1533044144.5770001,1139.8892929602266,870.3542039355992,706.0896665331019,954.6180966271232,935.1995603630418
1533044144.581,1023.6983501129273,870.3542039355992,706.0896665331019,929.4918290708225,879.1974577515027
1533044144.5839999,907.5138383799716,839.989636666461,730.4358666132407,894.9504461568498,912.8010130764688
1533044144.5879998,920.0738046931823,900.7187712047375,809.5703664128935,847.8491450095894,915.5993978885137
1533044144.592,1089.6429965930406,920.9479982727778,803.4869329059259,932.6366319464383,1198.396826968041
1533044144.596,1143.0276767599432,900.7187712047375,718.2689995993055,976.5995613078081,1215.198604630524
1533044144.6,1039.4031313401983,900.7187712047375,730.4358666132407,891.8120743709592,991.1959285794743
1533044144.6039999,901.2306396661945,799.5104558633027,687.8268999599305,857.2706914569865,884.7999617706993
1533044144.6079998,888.670673352984,769.1458885941645,626.9551667334491,907.5103643901376,1097.5976297833558
1533044144.6120002,1042.541515139915,748.9166615261242,578.2627665731712,913.7935390516441,1245.9980407483386
1533044144.6160002,1064.5230639666195,738.7813213250262,578.2627665731712,866.6922379043837,1022.0010990923954
1533044144.62,992.295218772729,769.1458885941645,633.051066292685,876.1137843517807,1072.400697684738
1533044144.6239998,891.8154882670443,718.552094256986,541.7372334268288,850.98751679548,613.2018063344586
1533044144.627,819.5876430731539,769.1458885941645,511.3075998397222,816.4461338815073,716.7993883311887
1533044144.631,1001.7168012862229,829.8750231324409,553.9165664930324,894.9504461568498,1276.7974768661531
1533044144.635,1089.6429965930406,860.2395904015792,505.2241663327546,932.6366319464383,1232.000382293007
1533044144.639,1039.4031313401983,961.447905743014,566.095899559236,904.371992604247,1215.198604630524
1533044144.643,945.1937373196034,880.4688174696194,645.2179333066204,938.9133755182196,1024.7994839044404
1533044144.647,901.2306396661945,728.6667077910062,663.4806998797916,929.4918290708225,786.7991493980592
1533044144.651,1083.3662289936071,819.7604095984208,639.1344997996528,901.2336208183563,711.1968843119921
1533044144.655,1130.4677104467328,870.3542039355992,626.9551667334491,898.0952490324656,926.7986715318003
1533044144.659,1048.8247138536922,850.1042502004811,633.051066292685,882.390527923562,1005.1993214299124
1533044144.6629999,1023.6983501129273,860.2395904015792,572.1793330662036,854.1323196710958,753.2013284681997
1533044144.667,945.1937373196034,971.5625192770341,553.9165664930324,832.150854990411,772.8014909427277
1533044144.67,973.458484860085,961.447905743014,614.7882997195138,854.1323196710958,781.1966453788626
1533044144.674,1086.504612793324,870.3542039355992,626.9551667334491,894.9504461568498,775.5998757547727
1533044144.678,1048.8247138536922,931.0833384738758,584.3462000801389,885.5353307991778,736.3995508057167
1533044144.6820002,973.458484860085,951.312565541916,584.3462000801389,872.9689814761649,797.9984230413456
1533044144.686,854.129158213069,931.0833384738758,590.4420996393749,838.4275985621922,1022.0010990923954
1533044144.69,916.9354208934656,920.9479982727778,541.7372334268288,807.0310185238353,722.3961579552786
1533044144.694,1130.4677104467328,890.6041576707174,450.4358666132407,860.4090632428771,842.8012520095983
1533044144.698,1111.6245454197451,951.312565541916,493.04483326655094,885.5353307991778,1035.9987575477269
1533044144.7020001,1058.2398652528423,1012.0417000801924,614.7882997195138,916.9319108375347,895.9992354139857
1533044144.706,957.753703632814,1022.1563136142125,590.4420996393749,907.5103643901376,730.7970467865201
1533044144.7089999,964.0369023465911,1012.0417000801924,620.8717332264814,872.9689814761649,845.5996368216432
1533044144.7129998,1146.16606055966,1032.2916538153106,773.0448332665509,904.371992604247,1041.6012615669235
1533044144.717,1171.292424300425,1042.4062673493306,779.1282667735186,945.1965501797262,705.6001146879021
1533044144.721,1095.9261953068178,931.0833384738758,669.5641333867593,938.9133755182196,809.1976966846322
1533044144.725,986.0184511732956,951.312565541916,541.7372334268288,850.98751679548,1094.799244971311
1533044144.7289999,992.295218772729,1022.1563136142125,505.2241663327546,835.2892267763016,839.9971328024467
1533044144.7329998,1161.8708417869311,1001.9270865461724,560.0,923.2150854990412,890.3967313947892
1533044144.7370002,1177.5691918998584,981.6771328110542,645.2179333066204,995.4362231128772,1108.7969034266423
1533044144.7410002,1058.2398652528423,1062.6354944173706,700.0062330261342,957.7564684130139,1086.3983561400694
1533044144.745,995.4400336867894,1052.5208808833509,700.0062330261342,907.5103643901376,977.1982701241428
1533044144.7489998,992.295218772729,991.7917463450743,742.6151996794443,860.4090632428771,778.3982605668176
1533044144.752,1136.7444780461663,971.5625192770341,724.3524331062731,910.6551672657534,685.9999522133741
1533044144.756,1205.83393944034,991.7917463450743,669.5641333867593,1011.1409442217808,965.9989964808564
1533044144.76,1130.4677104467328,1062.6354944173706,620.8717332264814,1039.399152474247,1223.5994934617656
1533044144.764,1023.6983501129273,971.5625192770341,590.4420996393749,970.3163866463017,1125.5986810891254
1533044144.768,992.295218772729,910.8333847387577,493.04483326655094,926.3534572849319,769.9973717355762
1533044144.772,1152.4492592734373,1022.1563136142125,456.51930012020836,970.3163866463017,714.0010035191436
1533044144.776,1202.6891245262796,1042.4062673493306,511.3075998397222,1011.1409442217808,641.1971232451215
1533044144.78,1111.6245454197451,991.7917463450743,535.6537999198611,1045.6823271357534,663.6014049268011
1533044144.784,1017.4215825134938,981.6771328110542,541.7372334268288,995.4362231128772,828.7978591591602
1533044144.7879999,894.953872066761,991.7917463450743,535.6537999198611,945.1965501797262,952.0013380255249
1533044144.792,1083.3662289936071,910.8333847387577,535.6537999198611,951.4732937515074,965.9989964808564
1533044144.795,1177.5691918998584,819.7604095984208,596.5255331463426,951.4732937515074,845.5996368216432
1533044144.799,1004.8616162002833,829.8750231324409,700.0062330261342,942.0581783938354,1035.9987575477269
1533044144.803,970.3201010603683,880.4688174696194,681.7434664529629,945.1965501797262,1366.3974004075517
1533044144.8070002,910.6522221796884,900.7187712047375,608.7048662125462,882.390527923562,999.5968174107159
1533044144.811,1023.6983501129273,850.1042502004811,620.8717332264814,866.6922379043837,806.3993118725872
1533044144.815,1168.1476093863646,870.3542039355992,633.051066292685,986.0211077552053,1173.1998948694231
1533044144.819,1102.2029629062513,941.1979520078959,566.095899559236,998.581025988493,1049.9964160030584
1533044144.823,1011.1383837997167,890.6041576707174,523.4869329059259,920.0767137131505,845.5996368216432
1533044144.8270001,898.0922558664778,819.7604095984208,499.12826677351853,879.2521561376714,979.9966549361878
1533044144.831,1048.8247138536922,850.1042502004811,474.78206669337965,932.6366319464383,873.6006881274128
1533044144.8339999,1208.9723232400568,819.7604095984208,444.3524331062731,998.581025988493,865.1997992961712
1533044144.8379998,1114.7629292194617,839.989636666461,450.4358666132407,989.159479541096,1061.1956896463448
1533044144.842,1042.541515139915,870.3542039355992,450.4358666132407,995.4362231128772,1097.5976297833558
1533044144.846,948.3385522336638,819.7604095984208,328.70486621254616,926.3534572849319,803.6009270605423
1533044144.85,1020.5599663132106,759.0312750601444,328.70486621254616,904.371992604247,436.8003440637064
1533044144.8539999,1171.292424300425,779.2605021281846,444.3524331062731,979.7379330936988,736.3995508057167
1533044144.8579998,1174.4308081001416,880.4688174696194,474.78206669337965,1064.5254200305478,904.4001242452273
1533044144.8620002,1092.787811507101,829.8750231324409,468.698633186412,1070.802163602329,769.9973717355762
1533044144.8660002,945.1937373196034,829.8750231324409,456.51930012020836,967.178014860411,909.9968938693172
1533044144.87,986.0184511732956,860.2395904015792,499.12826677351853,960.8948401989045,1024.7994839044404
1533044144.8739998,1205.83393944034,799.5104558633027,444.3524331062731,1089.6452564971235,901.5960050380756
1533044144.877,1221.5322895532672,779.2605021281846,413.9227995191666,1073.9405353882198,702.7959954807505
1533044144.881,1080.2214140795468,759.0312750601444,511.3075998397222,1017.4176877935621,767.1989869235312
1533044144.885,989.1568349730123,708.416754055888,365.21793330662035,960.8948401989045,784.0007645860143
1533044144.889,970.3201010603683,799.5104558633027,292.17933306620364,957.7564684130139,599.1984134840205
1533044144.893,1158.7260268728708,809.6250693973228,401.74346645296293,970.3163866463017,814.8002007038288
1533044144.897,1227.8154882670444,789.3958423292826,426.0896665331018,960.8948401989045,912.8010130764688
1533044144.901,1089.6429965930406,799.5104558633027,407.82689995993053,938.9133755182196,1092.000860159266
1533044144.905,986.0184511732956,738.7813213250262,359.13449979965276,885.5353307991778,1066.7981936655415
1533044144.909,916.9354208934656,647.7083461846893,292.17933306620364,847.8491450095894,803.6009270605423
1533044144.9129999,1051.9630976534088,637.5937326506692,255.6537999198611,885.5353307991778,1022.0010990923954
1533044144.9160001,1143.0276767599432,708.416754055888,255.6537999198611,929.4918290708225,1114.399407445839
1533044144.92,1055.1014814531256,748.9166615261242,286.095899559236,926.3534572849319,918.3977827005588
1533044144.924,1004.8616162002833,850.1042502004811,280.0,920.0767137131505,949.1972188183732
1533044144.928,986.0184511732956,931.0833384738758,346.95516673344906,898.0952490324656,1092.000860159266
1533044144.9320002,1114.7629292194617,890.6041576707174,395.6600329459953,923.2150854990412,1125.5986810891254
1533044144.936,1199.5507407265627,809.6250693973228,407.82689995993053,982.8763048795895,1159.196502018985
1533044144.94,1086.504612793324,759.0312750601444,505.2241663327546,973.4547584321923,1066.7981936655415
1533044144.944,992.295218772729,809.6250693973228,523.4869329059259,926.3534572849319,1097.5976297833558
1533044144.948,954.6153198330973,819.7604095984208,529.5703664128935,929.4918290708225,915.5993978885137
1533044144.9520001,1092.787811507101,839.989636666461,553.9165664930324,960.8948401989045,865.1997992961712
1533044144.956,1193.2675420127857,931.0833384738758,499.12826677351853,982.8763048795895,1027.5978687164854
1533044144.9589999,1161.8708417869311,941.1979520078959,407.82689995993053,986.0211077552053,954.7997228375698
1533044144.9629998,1095.9261953068178,910.8333847387577,413.9227995191666,967.178014860411,935.1995603630418
1533044144.967,970.3201010603683,951.312565541916,444.3524331062731,964.0396430745204,870.7965689202612
1533044144.971,1073.9446464801133,941.1979520078959,450.4358666132407,976.5995613078081,803.6009270605423
1533044144.975,1237.2306396661945,931.0833384738758,462.61519967944434,1001.7193977743837,1103.2001338025525
1533044144.9789999,1196.412356926846,1032.2916538153106,523.4869329059259,1017.4176877935621,979.9966549361878
1533044144.9829998,1095.9261953068178,1032.2916538153106,590.4420996393749,998.581025988493,1092.000860159266
1533044144.9870002,973.458484860085,1022.1563136142125,566.095899559236,951.4732937515074,1447.5964351177088
1533044144.9910002,1061.3846801669026,1012.0417000801924,578.2627665731712,957.7564684130139,1352.3997419522202
1533044144.995,1183.8523906136354,920.9479982727778,645.2179333066204,1014.2793160076715,1215.198604630524
1533044144.9989998,1121.046127933239,941.1979520078959,633.051066292685,1008.0025724358902,1178.796664493513
1533044145.002,1051.9630976534088,920.9479982727778,572.1793330662036,976.5995613078081,946.3988340063283
1533044145.006,948.3385522336638,850.1042502004811,547.8331329860647,967.178014860411,587.999139840734
1533044145.01,1036.258316426138,941.1979520078959,566.095899559236,982.8763048795895,638.3987384330766
1533044145.014,1208.9723232400568,951.312565541916,645.2179333066204,1026.8392342409593,952.0013380255249
1533044145.018,1196.412356926846,910.8333847387577,724.3524331062731,1017.4176877935621,1069.5965784775863
1533044145.022,1099.0645791065344,880.4688174696194,712.1731000400695,964.0396430745204,1105.9985186145975
1533044145.026,916.9354208934656,829.8750231324409,626.9551667334491,932.6366319464383,994.0000477866259
1533044145.03,967.1752861463078,829.8750231324409,572.1793330662036,916.9319108375347,870.7965689202612
1533044145.034,1149.3108754737204,870.3542039355992,541.7372334268288,942.0581783938354,761.5964829043346
1533044145.0379999,1102.2029629062513,910.8333847387577,584.3462000801389,954.6180966271232,965.9989964808564
1533044145.0410001,1042.541515139915,890.6041576707174,626.9551667334491,935.775003732329,1159.196502018985
1533044145.045,973.458484860085,880.4688174696194,529.5703664128935,898.0952490324656,683.2015674013292
1533044145.049,973.458484860085,880.4688174696194,474.78206669337965,888.6737025850686,674.8006785700876
1533044145.053,1177.5691918998584,839.989636666461,499.12826677351853,920.0767137131505,898.7976202260307
1533044145.0570002,1208.9723232400568,728.6667077910062,480.87796625261564,923.2150854990412,677.5990633821326
1533044145.061,1099.0645791065344,647.7083461846893,535.6537999198611,948.3349219656168,792.4016534172557
1533044145.065,1045.6798989396318,627.4583924495712,541.7372334268288,992.2978513269866,825.9994743471152
1533044145.069,986.0184511732956,667.9375732527295,511.3075998397222,964.0396430745204,904.4001242452273
1533044145.073,1124.1845117329556,688.1875269878477,578.2627665731712,979.7379330936988,982.8007741433394
1533044145.0770001,1215.24909083949,809.6250693973228,669.5641333867593,1036.2607806883564,1033.2003727356819
1533044145.081,1099.0645791065344,951.312565541916,645.2179333066204,1029.97760602685,1013.600210261154
1533044145.0839999,992.295218772729,900.7187712047375,584.3462000801389,973.4547584321923,870.7965689202612
1533044145.0879998,951.4769360333805,910.8333847387577,578.2627665731712,960.8948401989045,851.1964064457331
1533044145.092,1073.9446464801133,971.5625192770341,614.7882997195138,973.4547584321923,960.3964924616598
1533044145.096,1152.4492592734373,931.0833384738758,614.7882997195138,1033.1224089024658,1033.2003727356819
1533044145.1,1095.9261953068178,941.1979520078959,578.2627665731712,1048.8206989216442,792.4016534172557
1533044145.1039999,998.5784174865062,941.1979520078959,547.8331329860647,960.8948401989045,722.3961579552786
1533044145.1079998,929.4953872066761,941.1979520078959,572.1793330662036,879.2521561376714,873.6006881274128
1533044145.1120002,1061.3846801669026,900.7187712047375,584.3462000801389,894.9504461568498,1170.3957756622715
1533044145.1160002,1174.4308081001416,819.7604095984208,547.8331329860647,995.4362231128772,1150.80134758285
1533044145.12,1064.5230639666195,829.8750231324409,596.5255331463426,976.5995613078081,1133.999569920367
1533044145.1239998,970.3201010603683,829.8750231324409,602.6089666533102,904.371992604247,965.9989964808564
1533044145.127,860.4123569268461,799.5104558633027,590.4420996393749,835.2892267763016,1013.600210261154
1533044145.131,957.753703632814,789.3958423292826,553.9165664930324,838.4275985621922,1058.3973048342998
1533044145.135,1146.16606055966,789.3958423292826,493.04483326655094,935.775003732329,954.7997228375698
1533044145.139,1089.6429965930406,789.3958423292826,523.4869329059259,945.1965501797262,1105.9985186145975
1533044145.143,948.3385522336638,799.5104558633027,541.7372334268288,913.7935390516441,1181.6007837006646
1533044145.147,854.129158213069,839.989636666461,511.3075998397222,847.8491450095894,1229.1962630858554
1533044145.151,957.753703632814,941.1979520078959,529.5703664128935,885.5353307991778,1229.1962630858554
1533044145.155,1149.3108754737204,951.312565541916,535.6537999198611,989.159479541096,1273.9990920541081
1533044145.159,1133.6060942464494,951.312565541916,529.5703664128935,986.0211077552053,1304.7985281719227
1533044145.1629999,1026.8431650269877,951.312565541916,517.3910333466898,960.8948401989045,1237.597151917097
1533044145.1660001,942.0553535198867,941.1979520078959,480.87796625261564,901.2336208183563,1041.6012615669235
1533044145.17,1001.7168012862229,961.447905743014,432.17310004006947,942.0581783938354,1007.9977062419573
1533044145.174,1212.1107070397734,1012.0417000801924,480.87796625261564,1004.8577695602744,825.9994743471152
1533044145.178,1177.5691918998584,1093.000061686509,553.9165664930324,998.581025988493,671.996559362936
1533044145.1820002,1020.5599663132106,1133.4792424896675,553.9165664930324,967.178014860411,526.400267605105
1533044145.186,989.1568349730123,1265.0521251002406,493.04483326655094,935.775003732329,775.5998757547727
1533044145.19,1086.504612793324,1285.3020788353588,432.17310004006947,1001.7193977743837,1114.399407445839
1533044145.194,1190.1291582130689,1082.885448152489,450.4358666132407,989.159479541096,1010.7960910540023
1533044145.198,1089.6429965930406,951.312565541916,547.8331329860647,916.9319108375347,988.3975437674293
1533044145.2020001,879.2490908394901,870.3542039355992,614.7882997195138,854.1323196710958,714.0010035191436
1533044145.206,766.2029629062512,789.3958423292826,602.6089666533102,825.8676803289044,747.5988244490031
1533044145.2089999,822.7260268728706,738.7813213250262,687.8268999599305,847.8491450095894,979.9966549361878
1533044145.2129998,986.0184511732956,708.416754055888,809.5703664128935,850.98751679548,1111.601022633794
1533044145.217,979.7352524595184,728.6667077910062,840.0,872.9689814761649,946.3988340063283
1533044145.221,929.4953872066761,698.3021405218678,809.5703664128935,920.0767137131505,979.9966549361878
1533044145.225,904.375454580255,657.8229597187094,742.6151996794443,904.371992604247,1217.996989442569
1533044145.2289999,803.8892929602266,576.8645981123927,681.7434664529629,835.2892267763016,982.8007741433394
1533044145.2329998,948.3385522336638,586.9792116464129,712.1731000400695,872.9689814761649,1013.600210261154
1533044145.2370002,1067.661447766336,566.7499845783726,693.9103334668981,920.0767137131505,949.1972188183732
1533044145.2410002,982.8800673735789,556.6146443772745,706.0896665331019,929.4918290708225,800.7968078533906
1533044145.245,920.0738046931823,647.7083461846893,779.1282667735186,901.2336208183563,708.3984994999471
1533044145.248,876.1107070397734,698.3021405218678,791.3075998397222,894.9504461568498,937.9979451750868
1533044145.252,998.5784174865062,688.1875269878477,809.5703664128935,973.4547584321923,1153.599732394895
1533044145.256,1086.504612793324,698.3021405218678,864.3462000801389,982.8763048795895,909.9968938693172
1533044145.26,973.458484860085,789.3958423292826,833.9165664930324,942.0581783938354,912.8010130764688
1533044145.264,916.9354208934656,799.5104558633027,730.4358666132407,935.775003732329,1007.9977062419573
1533044145.268,860.4123569268461,698.3021405218678,712.1731000400695,854.1323196710958,716.7993883311887
1533044145.272,1014.2767675994335,657.8229597187094,669.5641333867593,841.572401437808,613.2018063344586
1533044145.276,1158.7260268728708,789.3958423292826,608.7048662125462,923.2150854990412,655.2005160955596
1533044145.28,1036.258316426138,769.1458885941645,657.397266372824,942.0581783938354,834.4003631783568
1533044145.284,957.753703632814,698.3021405218678,626.9551667334491,916.9319108375347,957.5981076496148
1533044145.2879999,857.2675420127856,708.416754055888,614.7882997195138,885.5353307991778,719.5977731432336
1533044145.2910001,916.9354208934656,809.6250693973228,566.095899559236,916.9319108375347,624.4010799777451
1533044145.295,1083.3662289936071,890.6041576707174,499.12826677351853,967.178014860411,809.1976966846322
1533044145.299,1061.3846801669026,880.4688174696194,572.1793330662036,970.3163866463017,722.3961579552786
1533044145.303,1008.0,860.2395904015792,560.0,973.4547584321923,739.1979356177616
1533044145.3070002,894.953872066761,809.6250693973228,584.3462000801389,964.0396430745204,1251.6005447675352
1533044145.311,916.9354208934656,779.2605021281846,626.9551667334491,967.178014860411,1405.5977253566077
1533044145.315,1083.3662289936071,759.0312750601444,608.7048662125462,989.159479541096,1184.3991685127096
1533044145.319,1073.9446464801133,829.8750231324409,602.6089666533102,1008.0025724358902,1203.9993309872375
1533044145.323,1014.2767675994335,769.1458885941645,620.8717332264814,976.5995613078081,968.7973812929013
1533044145.3270001,929.4953872066761,667.9375732527295,633.051066292685,935.775003732329,677.5990633821326
1533044145.331,979.7352524595184,748.9166615261242,663.4806998797916,970.3163866463017,1072.400697684738
1533044145.3339999,1130.4677104467328,850.1042502004811,645.2179333066204,1014.2793160076715,873.6006881274128
1533044145.3379998,1111.6245454197451,900.7187712047375,706.0896665331019,1011.1409442217808,677.5990633821326
1533044145.342,1055.1014814531256,951.312565541916,815.6537999198611,1004.8577695602744,842.8012520095983
1533044145.346,989.1568349730123,971.5625192770341,791.3075998397222,986.0211077552053,895.9992354139857
1533044145.35,1004.8616162002833,920.9479982727778,742.6151996794443,964.0396430745204,1038.797142359772
1533044145.3539999,1158.7260268728708,920.9479982727778,748.698633186412,976.5995613078081,1209.5961006113275
1533044145.3579998,1177.5691918998584,931.0833384738758,718.2689995993055,1020.5624906691779,1178.796664493513
1533044145.3620002,1086.504612793324,1022.1563136142125,663.4806998797916,1033.1224089024658,1033.2003727356819
1533044145.3660002,992.295218772729,1001.9270865461724,608.7048662125462,935.775003732329,1119.996177069929
1533044145.37,951.4769360333805,870.3542039355992,578.2627665731712,879.2521561376714,994.0000477866259
1533044145.373,1133.6060942464494,860.2395904015792,693.9103334668981,935.775003732329,859.5972952769747
1533044145.377,1199.5507407265627,890.6041576707174,718.2689995993055,954.6180966271232,935.1995603630418
1533044145.381,1067.661447766336,860.2395904015792,675.6600329459952,995.4362231128772,767.1989869235312
1533044145.385,989.1568349730123,799.5104558633027,706.0896665331019,954.6180966271232,806.3993118725872
1533044145.389,967.1752861463078,880.4688174696194,687.8268999599305,894.9504461568498,876.3990729394577
1533044145.393,1143.0276767599432,920.9479982727778,651.3138328658564,957.7564684130139,898.7976202260307
1533044145.397,1190.1291582130689,880.4688174696194,639.1344997996528,989.159479541096,898.7976202260307
1533044145.401,1067.661447766336,971.5625192770341,681.7434664529629,976.5995613078081,887.5983465827443
1533044145.405,964.0369023465911,971.5625192770341,608.7048662125462,948.3349219656168,960.3964924616598
1533044145.409,913.7906059794051,951.312565541916,523.4869329059259,964.0396430745204,895.9992354139857
1533044145.4129999,1099.0645791065344,890.6041576707174,608.7048662125462,995.4362231128772,741.9963204298066
1533044145.4160001,1202.6891245262796,799.5104558633027,736.5193001202084,986.0211077552053,610.397687127307
1533044145.42,1152.4492592734373,870.3542039355992,742.6151996794443,992.2978513269866,789.5975342101042
1533044145.424,1004.8616162002833,860.2395904015792,724.3524331062731,942.0581783938354,867.9981841082163
1533044145.428,913.7906059794051,829.8750231324409,693.9103334668981,850.98751679548,1049.9964160030584
1533044145.4320002,1086.504612793324,860.2395904015792,681.7434664529629,872.9689814761649,1150.80134758285
1533044145.436,1230.953872066761,900.7187712047375,687.8268999599305,938.9133755182196,985.5991589553844
1533044145.44,1127.329326647016,910.8333847387577,620.8717332264814,926.3534572849319,895.9992354139857
1533044145.444,1011.1383837997167,839.989636666461,596.5255331463426,916.9319108375347,963.2006116688113
1533044145.448,926.3570034069594,769.1458885941645,626.9551667334491,907.5103643901376,943.6004491942833
1533044145.4520001,986.0184511732956,809.6250693973228,645.2179333066204,866.6922379043837,898.7976202260307
1533044145.456,1130.4677104467328,819.7604095984208,669.5641333867593,945.1965501797262,1016.3985950731989
1533044145.4589999,1114.7629292194617,839.989636666461,748.698633186412,973.4547584321923,867.9981841082163
1533044145.4629998,1036.258316426138,880.4688174696194,827.8331329860647,992.2978513269866,725.2002771624302
1533044145.467,935.7721548061096,860.2395904015792,785.2241663327545,973.4547584321923,722.3961579552786
1533044145.471,1014.2767675994335,799.5104558633027,730.4358666132407,960.8948401989045,641.1971232451215
1533044145.475,1168.1476093863646,890.6041576707174,773.0448332665509,1008.0025724358902,865.1997992961712
1533044145.4789999,1133.6060942464494,931.0833384738758,815.6537999198611,932.6366319464383,943.6004491942833
1533044145.4829998,1051.9630976534088,829.8750231324409,718.2689995993055,951.4732937515074,1097.5976297833558
1533044145.4870002,970.3201010603683,769.1458885941645,651.3138328658564,976.5995613078081,1189.9959381367994
1533044145.4910002,1039.4031313401983,698.3021405218678,693.9103334668981,913.7935390516441,946.3988340063283
1533044145.495,1193.2675420127857,688.1875269878477,797.3910333466898,951.4732937515074,1139.596339544457
1533044145.498,1186.9907744133523,799.5104558633027,876.5255331463426,1042.543955349863,968.7973812929013
1533044145.502,1092.787811507101,890.6041576707174,925.2179333066204,1023.7008624550687,814.8002007038288
1533044145.506,954.6153198330973,819.7604095984208,913.051066292685,907.5103643901376,1307.5969129839675
1533044145.51,1001.7168012862229,880.4688174696194,852.1793330662036,923.2150854990412,1234.798767105052
1533044145.514,1158.7260268728708,931.0833384738758,840.0,942.0581783938354,755.9997132802447
1533044145.518,1111.6245454197451,860.2395904015792,785.2241663327545,932.6366319464383,831.5962439712051
1533044145.522,1017.4215825134938,819.7604095984208,681.7434664529629,929.4918290708225,772.8014909427277
1533044145.526,932.6337710063929,819.7604095984208,675.6600329459952,841.572401437808,803.6009270605423
1533044145.53,916.9354208934656,880.4688174696194,633.051066292685,822.7293085430138,1052.80053521021
1533044145.534,1051.9630976534088,890.6041576707174,553.9165664930324,891.8120743709592,811.9960814966771
1533044145.5379999,1067.661447766336,890.6041576707174,578.2627665731712,926.3534572849319,960.3964924616598
1533044145.5410001,938.91696972017,789.3958423292826,523.4869329059259,913.7935390516441,1349.5956227450686
1533044145.545,854.129158213069,688.1875269878477,444.3524331062731,847.8491450095894,1237.597151917097
1533044145.549,844.707575699575,667.9375732527295,505.2241663327546,810.169390309726,1229.1962630858554
1533044145.553,1039.4031313401983,607.229165381531,426.0896665331018,850.98751679548,960.3964924616598
1533044145.5570002,1092.787811507101,566.7499845783726,407.82689995993053,898.0952490324656,671.996559362936
1533044145.561,986.0184511732956,607.229165381531,486.9613997595833,916.9319108375347,744.8004396369582
1533044145.565,932.6337710063929,586.9792116464129,450.4358666132407,907.5103643901376,814.8002007038288
1533044145.569,869.8339394403399,546.5000308432545,511.3075998397222,844.7107732236987,660.7972857196495
1533044145.573,1023.6983501129273,566.7499845783726,596.5255331463426,907.5103643901376,809.1976966846322
1533044145.5770001,1168.1476093863646,576.8645981123927,614.7882997195138,995.4362231128772,1097.5976297833558
1533044145.58,1051.9630976534088,586.9792116464129,614.7882997195138,954.6180966271232,828.7978591591602
1533044145.5839999,916.9354208934656,576.8645981123927,541.7372334268288,957.7564684130139,775.5998757547727
1533044145.5879998,885.5322895532672,678.0729134538276,480.87796625261564,960.8948401989045,837.1987479904017
1533044145.592,1055.1014814531256,799.5104558633027,511.3075998397222,982.8763048795895,789.5975342101042
1533044145.596,1174.4308081001416,829.8750231324409,547.8331329860647,1023.7008624550687,671.996559362936
1533044145.6,1114.7629292194617,870.3542039355992,560.0,1004.8577695602744,1024.7994839044404
1533044145.6039999,1086.504612793324,951.312565541916,511.3075998397222,954.6180966271232,1170.3957756622715
1533044145.6079998,1011.1383837997167,1012.0417000801924,438.26899959930546,938.9133755182196,996.7984325986708
1533044145.6120002,1055.1014814531256,981.6771328110542,346.95516673344906,938.9133755182196,1105.9985186145975
1533044145.6160002,1168.1476093863646,951.312565541916,346.95516673344906,998.581025988493,820.3969703279187
1533044145.62,1124.1845117329556,971.5625192770341,389.5641333867593,1004.8577695602744,856.7989104649297
1533044145.623,1026.8431650269877,991.7917463450743,310.44209963937493,929.4918290708225,747.5988244490031
1533044145.627,945.1937373196034,1042.4062673493306,273.91656649303235,913.7935390516441,685.9999522133741
1533044145.631,1048.8247138536922,920.9479982727778,377.397266372824,964.0396430745204,699.9976106687055
1533044145.635,1218.3939057535506,829.8750231324409,590.4420996393749,986.0211077552053,688.7983370254191
1533044145.639,1152.4492592734373,900.7187712047375,724.3524331062731,992.2978513269866,901.5960050380756
1533044145.643,1008.0,900.7187712047375,700.0062330261342,935.775003732329,957.5981076496148
1533044145.647,910.6522221796884,931.0833384738758,663.4806998797916,854.1323196710958,1273.9990920541081
1533044145.651,967.1752861463078,900.7187712047375,651.3138328658564,907.5103643901376,1271.2007072420631
1533044145.655,1155.587643073154,880.4688174696194,657.397266372824,979.7379330936988,1178.796664493513
1533044145.659,1168.1476093863646,931.0833384738758,614.7882997195138,945.1965501797262,1089.1967409521144
1533044145.6629999,1033.1199326264211,839.989636666461,657.397266372824,913.7935390516441,1049.9964160030584
1533044145.6660001,916.9354208934656,819.7604095984208,675.6600329459952,942.0581783938354,1061.1956896463448
1533044145.67,932.6337710063929,728.6667077910062,572.1793330662036,967.178014860411,890.3967313947892
1533044145.674,1127.329326647016,657.8229597187094,499.12826677351853,967.178014860411,890.3967313947892
1533044145.678,1155.587643073154,759.0312750601444,523.4869329059259,970.3163866463017,604.8009175032171
1533044145.6820002,1099.0645791065344,870.3542039355992,578.2627665731712,967.178014860411,744.8004396369582
1533044145.686,1051.9630976534088,961.447905743014,493.04483326655094,938.9133755182196,1296.397639340681
1533044145.69,1080.2214140795468,931.0833384738758,420.00623302613417,951.4732937515074,985.5991589553844
1533044145.694,1290.6153198330974,941.1979520078959,444.3524331062731,1023.7008624550687,691.5967218374641
1533044145.698,1328.3016498870727,1001.9270865461724,511.3075998397222,1051.959070707535,1013.600210261154
1533044145.7020001,1108.4861616200283,971.5625192770341,523.4869329059259,1001.7193977743837,1187.1975533247546
1533044145.705,986.0184511732956,880.4688174696194,456.51930012020836,945.1965501797262,862.4014144841263
1533044145.7089999,976.5968686598017,829.8750231324409,499.12826677351853,929.4918290708225,781.1966453788626
1533044145.7129998,1130.4677104467328,779.2605021281846,602.6089666533102,901.2336208183563,1016.3985950731989
1533044145.717,1165.0092255866477,728.6667077910062,590.4420996393749,872.9689814761649,1041.6012615669235
1533044145.721,1039.4031313401983,789.3958423292826,572.1793330662036,891.8120743709592,971.6015005000529
1533044145.725,960.8985185468744,860.2395904015792,547.8331329860647,854.1323196710958,587.999139840734
1533044145.7289999,869.8339394403399,809.6250693973228,584.3462000801389,800.7478438623289,926.7986715318003
1533044145.7329998,1008.0,698.3021405218678,566.095899559236,847.8491450095894,1310.4010321911192
1533044145.7370002,1136.7444780461663,678.0729134538276,572.1793330662036,891.8120743709592,963.2006116688113
1533044145.7410002,1061.3846801669026,779.2605021281846,669.5641333867593,926.3534572849319,974.3998853120979
1533044145.745,1014.2767675994335,870.3542039355992,639.1344997996528,942.0581783938354,1145.1988435636536
1533044145.748,907.5138383799716,890.6041576707174,602.6089666533102,891.8120743709592,834.4003631783568
1533044145.752,1077.08303027983,860.2395904015792,566.095899559236,879.2521561376714,725.2002771624302
1533044145.756,1208.9723232400568,910.8333847387577,523.4869329059259,916.9319108375347,876.3990729394577
1533044145.76,1039.4031313401983,931.0833384738758,578.2627665731712,951.4732937515074,1035.9987575477269
1533044145.764,1004.8616162002833,900.7187712047375,566.095899559236,913.7935390516441,1133.999569920367
1533044145.768,954.6153198330973,860.2395904015792,523.4869329059259,857.2706914569865,985.5991589553844
1533044145.772,1048.8247138536922,839.989636666461,523.4869329059259,901.2336208183563,666.399789738846
1533044145.776,1252.9354208934656,860.2395904015792,608.7048662125462,964.0396430745204,755.9997132802447
1533044145.78,1177.5691918998584,789.3958423292826,657.397266372824,976.5995613078081,943.6004491942833
1533044145.784,1020.5599663132106,678.0729134538276,602.6089666533102,954.6180966271232,641.1971232451215
1533044145.7879999,960.8985185468744,637.5937326506692,633.051066292685,904.371992604247,540.3979260604365
1533044145.7910001,1099.0645791065344,708.416754055888,663.4806998797916,929.4918290708225,730.7970467865201
1533044145.795,1237.2306396661945,759.0312750601444,712.1731000400695,989.159479541096,996.7984325986708
1533044145.799,1165.0092255866477,759.0312750601444,773.0448332665509,1008.0025724358902,1027.5978687164854
1533044145.803,1086.504612793324,738.7813213250262,736.5193001202084,1008.0025724358902,965.9989964808564
1533044145.8070002,995.4400336867894,748.9166615261242,700.0062330261342,926.3534572849319,1181.6007837006646
1533044145.811,1020.5599663132106,819.7604095984208,706.0896665331019,926.3534572849319,1156.39811720694
1533044145.815,1177.5691918998584,779.2605021281846,700.0062330261342,979.7379330936988,912.8010130764688
1533044145.819,1202.6891245262796,718.552094256986,700.0062330261342,910.6551672657534,809.1976966846322
1533044145.823,1136.7444780461663,627.4583924495712,742.6151996794443,863.5538661184929,809.1976966846322
1533044145.8270001,1033.1199326264211,657.8229597187094,766.9613997595833,807.0310185238353,901.5960050380756
1533044145.83,1042.541515139915,728.6667077910062,760.8779662526157,810.169390309726,755.9997132802447
1533044145.8339999,1183.8523906136354,769.1458885941645,809.5703664128935,948.3349219656168,817.5985855158737
1533044145.8379998,1190.1291582130689,809.6250693973228,821.7372334268288,998.581025988493,996.7984325986708
1533044145.842,1111.6245454197451,799.5104558633027,748.698633186412,948.3349219656168,1002.4009366178674
1533044145.846,1033.1199326264211,698.3021405218678,687.8268999599305,916.9319108375347,1108.7969034266423
1533044145.85,992.295218772729,607.229165381531,626.9551667334491,916.9319108375347,1027.5978687164854
1533044145.8539999,1111.6245454197451,647.7083461846893,724.3524331062731,945.1965501797262,949.1972188183732
1533044145.8579998,1149.3108754737204,728.6667077910062,840.0,967.178014860411,985.5991589553844
1533044145.8620002,1067.661447766336,819.7604095984208,736.5193001202084,970.3163866463017,988.3975437674293
1533044145.8660002,976.5968686598017,789.3958423292826,620.8717332264814,916.9319108375347,1271.2007072420631
1533044145.87,929.4953872066761,748.9166615261242,620.8717332264814,850.98751679548,1198.396826968041
1533044145.873,1127.329326647016,748.9166615261242,608.7048662125462,888.6737025850686,996.7984325986708
1533044145.877,1171.292424300425,829.8750231324409,547.8331329860647,951.4732937515074,1408.3961101686527
1533044145.881,1064.5230639666195,829.8750231324409,566.095899559236,942.0581783938354,1383.1991780700348
1533044145.885,1020.5599663132106,667.9375732527295,547.8331329860647,960.8948401989045,834.4003631783568
1533044145.889,907.5138383799716,718.552094256986,541.7372334268288,891.8120743709592,403.1967887387403
1533044145.893,1001.7168012862229,708.416754055888,633.051066292685,882.390527923562,876.3990729394577
1533044145.897,1111.6245454197451,647.7083461846893,645.2179333066204,951.4732937515074,1251.6005447675352
1533044145.901,1008.0,728.6667077910062,633.051066292685,942.0581783938354,1016.3985950731989
1533044145.905,929.4953872066761,718.552094256986,626.9551667334491,907.5103643901376,985.5991589553844
1533044145.909,863.5507407265628,657.8229597187094,626.9551667334491,866.6922379043837,814.8002007038288
1533044145.9120002,976.5968686598017,617.3437789155511,602.6089666533102,888.6737025850686,447.9996177069928
1533044145.9160001,1168.1476093863646,678.0729134538276,620.8717332264814,913.7935390516441,411.5976775699818
1533044145.92,1105.3477778203116,738.7813213250262,669.5641333867593,954.6180966271232,1044.3996463789683
1533044145.924,967.1752861463078,728.6667077910062,687.8268999599305,973.4547584321923,1444.7980503056638
1533044145.928,901.2306396661945,698.3021405218678,681.7434664529629,938.9133755182196,915.5993978885137
1533044145.9320002,967.1752861463078,627.4583924495712,706.0896665331019,942.0581783938354,870.7965689202612
1533044145.936,1070.8062626803967,627.4583924495712,724.3524331062731,998.581025988493,778.3982605668176
1533044145.94,1026.8431650269877,627.4583924495712,669.5641333867593,1042.543955349863,817.5985855158737
1533044145.944,957.753703632814,516.1354635741162,712.1731000400695,989.159479541096,1282.3999808853496
1533044145.948,847.8523906136355,465.54166923693776,742.6151996794443,904.371992604247,1408.3961101686527
1533044145.9520001,932.6337710063929,435.17710196779956,669.5641333867593,935.775003732329,1133.999569920367
1533044145.955,1143.0276767599432,394.6979211646412,724.3524331062731,967.178014860411,1063.9998088534965
1533044145.9589999,1130.4677104467328,414.9271482326814,760.8779662526157,935.775003732329,1125.5986810891254
1533044145.9629998,1036.258316426138,445.2917155018197,681.7434664529629,907.5103643901376,1041.6012615669235
1533044145.967,938.91696972017,506.02085004009615,590.4420996393749,847.8491450095894,1265.5982032228667
1533044145.971,982.8800673735789,566.7499845783726,529.5703664128935,872.9689814761649,1142.4004587516085
1533044145.975,1146.16606055966,617.3437789155511,505.2241663327546,982.8763048795895,985.5991589553844
1533044145.9789999,1133.6060942464494,718.552094256986,535.6537999198611,1055.1038735831507,915.5993978885137
1533044145.9829998,1042.541515139915,759.0312750601444,535.6537999198611,1023.7008624550687,708.3984994999471
1533044145.9870002,1004.8616162002833,759.0312750601444,480.87796625261564,951.4732937515074,559.9980885349645
1533044145.9910002,1014.2767675994335,769.1458885941645,511.3075998397222,929.4918290708225,517.9993787738634
1533044145.995,1171.292424300425,779.2605021281846,614.7882997195138,973.4547584321923,921.1961675126038
1533044145.998,1190.1291582130689,769.1458885941645,681.7434664529629,1008.0025724358902,1287.9967505094396
1533044146.002,1042.541515139915,829.8750231324409,633.051066292685,1001.7193977743837,1089.1967409521144
1533044146.006,976.5968686598017,829.8750231324409,547.8331329860647,960.8948401989045,957.5981076496148
1533044146.01,945.1937373196034,748.9166615261242,614.7882997195138,957.7564684130139,1173.1998948694231
1533044146.014,1080.2214140795468,759.0312750601444,657.397266372824,982.8763048795895,1192.800057343951
1533044146.018,1190.1291582130689,688.1875269878477,608.7048662125462,1011.1409442217808,918.3977827005588
1533044146.022,1133.6060942464494,597.093825180433,529.5703664128935,1004.8577695602744,669.198174550891
1533044146.026,970.3201010603683,546.5000308432545,529.5703664128935,932.6366319464383,937.9979451750868
1533044146.03,901.2306396661945,576.8645981123927,596.5255331463426,898.0952490324656,1411.2002293758042
1533044146.034,1092.787811507101,607.229165381531,596.5255331463426,951.4732937515074,1195.598442155996
1533044146.0370002,1146.16606055966,708.416754055888,620.8717332264814,954.6180966271232,800.7968078533906
1533044146.0410001,982.8800673735789,819.7604095984208,663.4806998797916,910.6551672657534,881.9958425635476
1533044146.045,929.4953872066761,941.1979520078959,553.9165664930324,926.3534572849319,1010.7960910540023
1533044146.049,979.7352524595184,971.5625192770341,474.78206669337965,935.775003732329,1226.3978782738106
1533044146.053,1051.9630976534088,799.5104558633027,572.1793330662036,973.4547584321923,828.7978591591602
1533044146.0570002,1073.9446464801133,748.9166615261242,724.3524331062731,986.0211077552053,870.7965689202612
1533044146.061,1011.1383837997167,779.2605021281846,760.8779662526157,913.7935390516441,1307.5969129839675
1533044146.065,967.1752861463078,779.2605021281846,657.397266372824,898.0952490324656,1131.201185108322
1533044146.069,847.8523906136355,769.1458885941645,596.5255331463426,803.8862156482195,837.1987479904017
1533044146.073,945.1937373196034,769.1458885941645,572.1793330662036,807.0310185238353,677.5990633821326
1533044146.0770001,1064.5230639666195,738.7813213250262,578.2627665731712,904.371992604247,1125.5986810891254
1533044146.08,935.7721548061096,698.3021405218678,547.8331329860647,894.9504461568498,1103.2001338025525
1533044146.0839999,882.3939057535505,718.552094256986,474.78206669337965,885.5353307991778,761.5964829043346
1533044146.0879998,822.7260268728706,789.3958423292826,511.3075998397222,803.8862156482195,842.8012520095983
1533044146.092,932.6337710063929,809.6250693973228,547.8331329860647,829.0060521147951,1072.400697684738
1533044146.096,1165.0092255866477,759.0312750601444,620.8717332264814,948.3349219656168,744.8004396369582
1533044146.1,1099.0645791065344,728.6667077910062,693.9103334668981,910.6551672657534,719.5977731432336
1533044146.1039999,960.8985185468744,678.0729134538276,651.3138328658564,923.2150854990412,820.3969703279187
1533044146.1079998,907.5138383799716,698.3021405218678,602.6089666533102,910.6551672657534,828.7978591591602
1533044146.1120002,979.7352524595184,698.3021405218678,578.2627665731712,866.6922379043837,1013.600210261154
1533044146.1160002,1130.4677104467328,688.1875269878477,614.7882997195138,923.2150854990412,937.9979451750868
1533044146.12,1117.907744133522,718.552094256986,675.6600329459952,970.3163866463017,991.1959285794743
1533044146.123,1023.6983501129273,769.1458885941645,620.8717332264814,982.8763048795895,725.2002771624302
1533044146.127,926.3570034069594,759.0312750601444,590.4420996393749,923.2150854990412,753.2013284681997
1533044146.131,998.5784174865062,748.9166615261242,590.4420996393749,901.2336208183563,982.8007741433394
1533044146.135,1193.2675420127857,769.1458885941645,608.7048662125462,923.2150854990412,825.9994743471152
1533044146.139,1165.0092255866477,870.3542039355992,754.7820666933796,942.0581783938354,1189.9959381367994
1533044146.143,1051.9630976534088,941.1979520078959,730.4358666132407,942.0581783938354,1315.9978018152092
1533044146.147,957.753703632814,890.6041576707174,693.9103334668981,951.4732937515074,1215.198604630524
1533044146.151,960.8985185468744,880.4688174696194,687.8268999599305,885.5353307991778,1027.5978687164854
1533044146.155,1105.3477778203116,910.8333847387577,700.0062330261342,850.98751679548,800.7968078533906
1533044146.159,1183.8523906136354,890.6041576707174,779.1282667735186,901.2336208183563,909.9968938693172
1533044146.1620002,1105.3477778203116,829.8750231324409,724.3524331062731,916.9319108375347,884.7999617706993
1533044146.1660001,935.7721548061096,839.989636666461,651.3138328658564,854.1323196710958,769.9973717355762
1533044146.17,904.375454580255,839.989636666461,602.6089666533102,775.6280073957533,755.9997132802447
1533044146.174,1149.3108754737204,880.4688174696194,608.7048662125462,882.390527923562,613.2018063344586
1533044146.178,1196.412356926846,890.6041576707174,657.397266372824,948.3349219656168,657.9989009076046
1533044146.1820002,1014.2767675994335,789.3958423292826,700.0062330261342,945.1965501797262,946.3988340063283
1533044146.186,938.91696972017,698.3021405218678,620.8717332264814,907.5103643901376,1007.9977062419573
1533044146.19,891.8154882670443,718.552094256986,523.4869329059259,794.4646692008224,758.7980980922896
1533044146.194,1033.1199326264211,779.2605021281846,535.6537999198611,850.98751679548,624.4010799777451
1533044146.198,1139.8892929602266,799.5104558633027,669.5641333867593,913.7935390516441,839.9971328024467
1533044146.2020001,1033.1199326264211,860.2395904015792,748.698633186412,954.6180966271232,1257.197314391625
1533044146.205,945.1937373196034,850.1042502004811,675.6600329459952,964.0396430745204,1089.1967409521144
1533044146.2089999,885.5322895532672,850.1042502004811,706.0896665331019,920.0767137131505,800.7968078533906
1533044146.2129998,1017.4215825134938,951.312565541916,791.3075998397222,1004.8577695602744,1108.7969034266423
1533044146.217,1146.16606055966,1001.9270865461724,821.7372334268288,1029.97760602685,1007.9977062419573
1533044146.221,1083.3662289936071,1001.9270865461724,760.8779662526157,960.8948401989045,979.9966549361878
1533044146.225,1001.7168012862229,931.0833384738758,681.7434664529629,913.7935390516441,1007.9977062419573
1533044146.2289999,926.3570034069594,880.4688174696194,754.7820666933796,894.9504461568498,1145.1988435636536
1533044146.2329998,1051.9630976534088,941.1979520078959,718.2689995993055,926.3534572849319,1212.4002198184792
1533044146.2370002,1143.0276767599432,1052.5208808833509,718.2689995993055,998.581025988493,1245.9980407483386
1533044146.2410002,1045.6798989396318,1052.5208808833509,730.4358666132407,967.178014860411,1159.196502018985
1533044146.244,1102.2029629062513,1133.4792424896675,584.3462000801389,964.0396430745204,890.3967313947892
1533044146.248,1092.787811507101,1133.4792424896675,663.4806998797916,1026.8392342409593,890.3967313947892
1533044146.252,998.5784174865062,941.1979520078959,766.9613997595833,916.9319108375347,823.2010895350703
1533044146.256,1039.4031313401983,779.2605021281846,803.4869329059259,885.5353307991778,991.1959285794743
1533044146.26,957.753703632814,708.416754055888,852.1793330662036,910.6551672657534,895.9992354139857
1533044146.264,882.3939057535505,698.3021405218678,852.1793330662036,901.2336208183563,867.9981841082163
1533044146.268,791.3228955326723,657.8229597187094,980.0062330261342,825.8676803289044,1273.9990920541081
1533044146.272,800.7444780461663,627.4583924495712,1034.7820666933796,731.6650780343836,1273.9990920541081
1533044146.276,964.0369023465911,586.9792116464129,1046.9613997595832,860.4090632428771,1030.3962535285302
1533044146.28,967.1752861463078,536.3854173092344,1162.6089666533103,888.6737025850686,1142.4004587516085
1533044146.284,816.4492592734372,566.7499845783726,1223.4806998797917,832.150854990411,1133.999569920367
1533044146.2870002,728.5230639666195,627.4583924495712,1120.0,807.0310185238353,867.9981841082163
1533044146.2910001,838.4308081001417,678.0729134538276,1053.044833266551,807.0310185238353,895.9992354139857
1533044146.295,1017.4215825134938,708.416754055888,1095.653799919861,869.8306096902743,1164.7990060381815
1533044146.299,1017.4215825134938,657.8229597187094,1089.5703664128935,923.2150854990412,786.7991493980592
1533044146.303,929.4953872066761,698.3021405218678,1065.2241663327545,970.3163866463017,705.6001146879021
1533044146.3070002,829.0092255866477,728.6667077910062,1022.6151996794443,872.9689814761649,1022.0010990923954
1533044146.311,838.4308081001417,759.0312750601444,937.397266372824,775.6280073957533,842.8012520095983
1533044146.315,1045.6798989396318,839.989636666461,973.9103334668981,888.6737025850686,862.4014144841263
1533044146.319,1099.0645791065344,839.989636666461,1065.2241663327545,964.0396430745204,1103.2001338025525
1533044146.323,1023.6983501129273,809.6250693973228,973.9103334668981,920.0767137131505,817.5985855158737
1533044146.3270001,879.2490908394901,829.8750231324409,858.2627665731712,904.371992604247,543.1963108724814
1533044146.33,822.7260268728706,819.7604095984208,846.0834335069676,945.1965501797262,797.9984230413456
1533044146.3339999,1036.258316426138,819.7604095984208,846.0834335069676,907.5103643901376,1108.7969034266423
1533044146.3379998,1124.1845117329556,839.989636666461,876.5255331463426,888.6737025850686,971.6015005000529
1533044146.342,992.295218772729,860.2395904015792,858.2627665731712,942.0581783938354,873.6006881274128
1533044146.346,882.3939057535505,880.4688174696194,754.7820666933796,904.371992604247,862.4014144841263
1533044146.35,879.2490908394901,900.7187712047375,748.698633186412,860.4090632428771,856.7989104649297
1533044146.3539999,1064.5230639666195,880.4688174696194,840.0,882.390527923562,795.2000382293007
1533044146.3579998,1136.7444780461663,829.8750231324409,876.5255331463426,935.775003732329,960.3964924616598
1533044146.3620002,1080.2214140795468,809.6250693973228,773.0448332665509,957.7564684130139,1105.9985186145975
1533044146.3660002,989.1568349730123,839.989636666461,706.0896665331019,926.3534572849319,806.3993118725872
1533044146.369,869.8339394403399,880.4688174696194,809.5703664128935,891.8120743709592,851.1964064457331
1533044146.373,1073.9446464801133,870.3542039355992,833.9165664930324,913.7935390516441,1215.198604630524
1533044146.377,1190.1291582130689,890.6041576707174,803.4869329059259,964.0396430745204,1072.400697684738
1533044146.381,1042.541515139915,951.312565541916,815.6537999198611,964.0396430745204,657.9989009076046
1533044146.385,982.8800673735789,971.5625192770341,864.3462000801389,907.5103643901376,674.8006785700876
1533044146.389,929.4953872066761,1001.9270865461724,913.051066292685,885.5353307991778,890.3967313947892
1533044146.393,1070.8062626803967,971.5625192770341,852.1793330662036,967.178014860411,954.7997228375698
1533044146.397,1183.8523906136354,839.989636666461,797.3910333466898,992.2978513269866,1019.1969798852439
1533044146.401,1099.0645791065344,779.2605021281846,766.9613997595833,954.6180966271232,1234.798767105052
1533044146.405,1051.9630976534088,809.6250693973228,742.6151996794443,960.8948401989045,1198.396826968041
1533044146.409,970.3201010603683,779.2605021281846,712.1731000400695,945.1965501797262,940.7963299871318
1533044146.4120002,1061.3846801669026,728.6667077910062,724.3524331062731,942.0581783938354,839.9971328024467
1533044146.4160001,1218.3939057535506,708.416754055888,779.1282667735186,1023.7008624550687,845.5996368216432
1533044146.42,1136.7444780461663,708.416754055888,852.1793330662036,1061.380617154932,837.1987479904017
1533044146.424,1020.5599663132106,728.6667077910062,876.5255331463426,1008.0025724358902,965.9989964808564
1533044146.428,935.7721548061096,759.0312750601444,833.9165664930324,932.6366319464383,1010.7960910540023
1533044146.4320002,986.0184511732956,789.3958423292826,766.9613997595833,979.7379330936988,831.5962439712051
1533044146.436,1114.7629292194617,809.6250693973228,803.4869329059259,1045.6823271357534,1061.1956896463448
1533044146.44,1086.504612793324,809.6250693973228,797.3910333466898,1008.0025724358902,1159.196502018985
1533044146.444,1036.258316426138,769.1458885941645,706.0896665331019,1001.7193977743837,851.1964064457331
1533044146.448,907.5138383799716,748.9166615261242,681.7434664529629,957.7564684130139,988.3975437674293
1533044146.4520001,960.8985185468744,799.5104558633027,712.1731000400695,923.2150854990412,1198.396826968041
1533044146.455,1212.1107070397734,850.1042502004811,773.0448332665509,1036.2607806883564,952.0013380255249
1533044146.4589999,1215.24909083949,789.3958423292826,815.6537999198611,1051.959070707535,898.7976202260307
1533044146.4629998,1130.4677104467328,789.3958423292826,797.3910333466898,992.2978513269866,784.0007645860143
1533044146.467,1036.258316426138,819.7604095984208,809.5703664128935,938.9133755182196,489.9983274680939
1533044146.471,926.3570034069594,920.9479982727778,858.2627665731712,920.0767137131505,657.9989009076046
1533044146.475,1061.3846801669026,971.5625192770341,864.3462000801389,979.7379330936988,968.7973812929013
