timestamps,TP9,AF7,AF8,TP10,Right AUX
1533222559.839,1220.9040143523816,731.8808508337332,708.4661075196148,1087.1936584644488,1011.2340934717076
1533222559.843,1234.2399327163848,754.057682039081,748.1609333042442,1084.9061520818975,1148.7659065282924
1533222559.8470001,1155.8392292967715,754.057682039081,553.0475264058371,1082.6139581862672,892.5843937685528
1533222559.851,1081.920532152229,726.3394818484749,535.5535834677069,1073.459245142983,876.4028810088133
1533222559.855,1115.6250358399936,737.4335750833058,586.6878164886593,1082.6139581862672,992.3575028188784
1533222559.859,1214.0777857573912,820.5995309194385,664.0602080971886,1105.503084551017,916.8511402075615
1533222559.8620002,1290.2397797990775,848.3177311100446,746.1422954337053,1160.436050323801,822.4737096440159
1533222559.8660002,1211.8390763794644,792.8699754645182,645.8952230819577,1190.192383349284,868.3121246289436
1533222559.87,1059.625188757301,748.5163130538226,548.3378306778496,1091.7733587426303,1070.5589433232851
1533222559.8739998,1041.6008257534588,787.3286064792597,560.4482799912732,1073.459245142983,935.7277308603907
1533222559.8779998,1140.1590886128488,787.3286064792597,653.2959766673939,1103.215578168466,709.2141657270405
1533222559.8820002,1187.1995106646166,748.5163130538226,781.8012233870663,1096.348371507733,919.5517408012519
1533222559.8860002,1169.280660602767,798.4226997140906,647.2400630557775,1132.9719111939487,1016.6297719584877
1533222559.89,1106.5600978670764,820.5995309194385,519.4072363230149,1112.37029121175,1040.8965183974963
1533222559.894,1104.3168009699325,803.9640686993491,571.2125114210679,1087.1936584644488,1162.2468186943415
1533222559.8979998,1189.4382200425437,820.5995309194385,658.6780923822912,1126.1047045332157,663.3702280415123
1533222559.901,1234.2399327163848,864.953193330134,717.8854989755897,1132.9719111939487,388.31212462894354
1533222559.905,1187.3050236066092,820.5995309194385,575.9222071490553,1098.6358778902843,660.6751501484226
1533222559.909,1126.717657306853,803.9640686993491,528.8266277789899,1105.503084551017,919.5517408012519
1533222559.9129999,1158.0779386746983,914.8595799904022,598.1258458151731,1130.6797172983183,814.3829532641462
1533222559.917,1223.037210788316,887.1300245354818,717.8854989755897,1139.8391178546815,833.2595439169754
1533222559.921,1263.356917187086,837.2349931395278,773.0556298278104,1130.6797172983183,1097.526290355984
1533222559.925,1243.1993577473097,959.2132424010977,621.6729465453012,1126.1047045332157,895.2794716616426
1533222559.929,1191.6769294204705,1003.5669048117933,483.74830836965384,1123.8171981506646,790.1106841245369
1533222559.9329998,1218.559792032462,1014.6609980466242,549.0102506647595,1116.9499914899316,771.2340934717076
1533222559.937,1267.838923462157,1020.2023670318827,621.6729465453012,1130.6797172983183,868.3121246289436
1533222559.941,1290.2397797990775,970.2959803716145,702.4101939079983,1151.281337280517,782.0199277446671
1533222559.944,1287.9964829019336,948.1191491662668,721.2489768199482,1171.8782697496365,941.1234093471708
1533222559.948,1234.2399327163848,898.2241177703128,512.0064827375787,1181.0376703059997,1170.3375750742114
1533222559.9520001,1198.3976450734683,853.8591000953031,511.3326848408596,1185.6126830711023,1186.5190878339508
1533222559.956,1267.838923462157,859.4118243448756,610.2362951285967,1174.1704636452669,1059.7731090503255
1533222559.96,1368.6404832186909,876.0472865649649,735.3780640039106,1190.192383349284,922.2468186943415
1533222559.964,1387.0960730289369,859.4118243448756,738.0691218613593,1206.214303053301,679.5517408012519
1533222559.968,1279.0370578710088,853.8591000953031,547.6654106909398,1199.3470963925681,725.3901557861794
1533222559.9720001,1283.5190641460795,831.6822688899554,539.5908592087845,1194.7673961143864,703.8184872402605
1533222559.976,1352.9603425347682,842.7763621247863,656.6594545117524,1176.4579700278182,722.6950778930898
1533222559.98,1422.3970334042397,881.5886555502234,742.1063976024369,1183.325176688551,746.967347032699
1533222559.984,1420.1583240263128,803.9640686993491,698.3729181669206,1190.192383349284,730.7858342729595
1533222559.9870002,1317.118054891852,842.7763621247863,553.7199463927469,1199.3470963925681,938.428331454081
1533222559.9910002,1305.9199204830002,986.9314425917039,562.466917861812,1238.258142461335,633.7078031157236
1533222559.995,1381.6506877182826,1108.9096918532737,653.9683966543038,1268.0097879737389,795.506362611317
1533222559.9989998,1444.7978897411601,1164.3574474988002,732.0145861595521,1302.341133764324,1197.3049221069102
1533222560.0029998,1444.7978897411601,1097.826953882757,758.926542643848,1293.18642072104,1140.6751501484225
1533222560.0070002,1393.2800489335384,1114.4624161028462,639.8393094703413,1258.8550749304545,1008.539015578618
1533222560.0110002,1346.2396268817704,1197.628371938979,586.6878164886593,1249.7003618871704,817.0780311572358
1533222560.015,1327.6739366103145,1142.1806162934524,598.7982658020829,1229.0987419049718,889.8893158754631
1533222560.019,1435.8384647102353,1114.4624161028462,680.8803531385997,1235.9659485657046,1073.2595439169754
1533222560.0229998,1471.6807523531515,1197.628371938979,799.9675863121064,1263.4347752086362,852.1361345698047
1533222560.026,1400.0007645865362,1214.2638341590684,647.2400630557775,1290.8989143384886,868.3121246289436
1533222560.03,1330.5594861978477,1147.721985278711,577.2684250326844,1261.1425813130058,1027.415606231447
1533222560.034,1361.919767565693,1114.4624161028462,596.1072079446343,1217.6565224791364,803.5971189911867
1533222560.0379999,1442.5591803632333,1120.0037850881047,709.1385275065246,1231.3909358006022,765.8439376855282
1533222560.042,1456.0006116692289,1031.2964602667134,744.1250354729757,1245.120661608989,687.636974480521
1533222560.046,1355.1990519126948,937.0364111957499,556.4110042501956,1208.5018094358522,520.4482591987481
1533222560.05,1240.9606483693826,881.5886555502234,527.4804098953608,1183.325176688551,674.1560623144718
1533222560.054,1247.6767765031634,837.2349931395278,606.871439374429,1169.5907633670854,663.3702280415123
1533222560.0579998,1341.7576206066994,787.3286064792597,655.3132366281235,1162.7235567063524,509.6624249257887
1533222560.062,1355.1990519126948,748.5163130538226,744.1250354729757,1174.1704636452669,458.42833145408105
1533222560.066,1283.5190641460795,737.4335750833058,660.0229323561109,1155.8563500456196,641.7985594955934
1533222560.069,1247.6767765031634,731.8808508337332,509.9878448670399,1132.9719111939487,854.8312124628943
1533222560.073,1227.519217063387,659.8089882324315,551.0288885352983,1116.9499914899316,1043.5971189911868
1533222560.0770001,1236.4786420943117,637.6321570270836,668.0974838382662,1098.6358778902843,1156.8511402075615
1533222560.081,1283.5190641460795,665.3503572176899,726.6310925348455,1107.7952784466474,881.7985594955934
1533222560.085,1216.316495135318,626.5380637922527,618.3094687009427,1100.9280717859147,728.0907563798697
1533222560.089,1135.6770823377778,593.2671393520741,472.31027904314004,1084.9061520818975,542.0199277446671
1533222560.093,1167.0373637056232,615.4439705574218,526.1341920117319,1080.326451803716,542.0199277446671
1533222560.0970001,1214.0777857573912,604.361232586905,619.6556865845716,1062.0170257171476,838.6496997031549
1533222560.101,1270.077632840084,598.8198636016465,716.5392810919607,1080.326451803716,709.2141657270405
1533222560.105,1272.316342218011,615.4439705574218,734.7056440170007,1103.215578168466,695.7277308603907
1533222560.1079998,1193.9202263176146,648.7148949976005,557.0834242371054,1098.6358778902843,916.8511402075615
1533222560.1120002,1158.0779386746983,609.9026015721633,536.2273813644259,1098.6358778902843,817.0780311572358
1533222560.1160002,1214.0777857573912,604.361232586905,650.6049188099453,1098.6358778902843,725.3901557861794
1533222560.12,1276.798348493082,676.4444504525208,745.4698754467954,1126.1047045332157,946.5135651333502
1533222560.1239998,1261.1182078091592,665.3503572176899,658.0056723953813,1119.237497872483,752.3575028188784
1533222560.1279998,1153.6005199188444,687.5271884230376,534.2087434938871,1094.0608651251816,631.0127252226339
1533222560.1320002,1108.7988072450034,765.151775273912,561.1206999781831,1073.459245142983,1043.5971189911868
1533222560.1360002,1200.6409419706124,765.151775273912,616.2908308304039,1066.5920384822502,1003.1433370918379
1533222560.14,1261.1182078091592,720.7981128632164,703.7564117916272,1075.7514390386134,846.7404560830246
1533222560.144,1234.2399327163848,654.256263982859,705.775049662166,1064.304532099699,1030.1106841245369
1533222560.1479998,1158.0779386746983,698.6212816578686,583.3229607344915,1075.7514390386134,1081.3503002968453
1533222560.151,1113.2808135200744,803.9640686993491,546.3191928073107,1087.1936584644488,924.9418965874313
1533222560.155,1133.4383729598508,781.7872374940013,573.2311492916067,1071.1717387604317,938.428331454081
1533222560.159,1205.118360726466,765.151775273912,697.7004981800108,1087.1936584644488,916.8511402075615
1533222560.1629999,1227.519217063387,809.5054376846075,738.0691218613593,1112.37029121175,911.460984421382
1533222560.167,1162.5599449497693,792.8699754645182,536.2273813644259,1091.7733587426303,617.5262903559841
1533222560.171,1093.1186665610808,742.9749440685641,557.0834242371054,1034.5528865872952,296.6297719584877
1533222560.175,1115.5195228980012,754.057682039081,618.9818886878526,1050.5748062913121,1127.1887152817728
1533222560.179,1218.559792032462,776.2458685087429,686.9362667502161,1094.0608651251816,1456.1815127597395
1533222560.1829998,1243.1993577473097,693.0685574082961,765.6548762423744,1148.9938308979656,889.8893158754631
1533222560.187,1211.8390763794644,643.1735260123421,553.7199463927469,1197.0595900100168,690.3375750742113
1533222560.191,1155.8392292967715,787.3286064792597,530.8438877397194,1119.237497872483,841.3503002968451
1533222560.194,1153.6005199188444,864.953193330134,624.3653823125592,1034.5528865872952,871.0127252226339
1533222560.198,1256.6407890533053,853.8591000953031,726.6310925348455,1052.8623126738635,714.6043215132199
1533222560.2020001,1312.6406361359982,859.4118243448756,756.2354847863994,1082.6139581862672,679.5517408012519
1533222560.206,1261.1182078091592,859.4118243448756,607.545237271148,1064.304532099699,968.0907563798697
1533222560.21,1220.798501410389,892.6713935207403,538.9184392218747,1087.1936584644488,1156.8511402075615
1533222560.214,1270.077632840084,881.5886555502234,571.2125114210679,1126.1047045332157,1119.097958901903
1533222560.218,1368.6404832186909,887.1300245354818,666.7512659546372,1158.1485439412497,1003.1433370918379
1533222560.2220001,1375.3566113524716,903.7654867555711,775.0742676983493,1165.0157506019827,981.571668545919
1533222560.226,1290.2397797990775,848.3177311100446,675.4982374237023,1132.9719111939487,976.1815127597395
1533222560.23,1276.798348493082,809.5054376846075,538.2460192349648,1167.303256984534,1208.0907563798698
1533222560.2329998,1319.356764269779,792.8699754645182,549.6826706516694,1222.236222757318,954.6043215132199
1533222560.2370002,1377.5999082496157,737.4335750833058,645.2214251852387,1217.6565224791364,749.6624249257887
1533222560.2410002,1388.798042658467,737.4335750833058,772.3818319310914,1219.9440288616877,965.3901557861794
1533222560.245,1361.919767565693,759.6104062886535,700.3915560374595,1235.9659485657046,1022.0199277446671
1533222560.2489998,1296.9604954520755,748.5163130538226,528.1528298822707,1217.6565224791364,827.8638654301953
1533222560.2529998,1292.4784891770046,815.05816193418,568.5214535636193,1213.076822200955,714.6043215132199
1533222560.2570002,1359.676470668549,792.8699754645182,705.1012517654469,1224.5237291398691,733.4809121660492
1533222560.2610002,1368.6404832186909,715.2453886136439,779.1101655296177,1224.5237291398691,711.9092436201303
1533222560.265,1364.15847694362,709.7040196283855,675.4982374237023,1208.5018094358522,892.5843937685528
1533222560.269,1312.6406361359982,737.4335750833058,528.8266277789899,1181.0376703059997,782.0199277446671
1533222560.2729998,1261.1182078091592,720.7981128632164,583.9967586312107,1153.5688436630683,919.5517408012519
1533222560.276,1299.1992048300024,720.7981128632164,694.3370203356523,1153.5688436630683,795.506362611317
1533222560.28,1373.1179019745448,720.7981128632164,738.0691218613593,1178.7454764103695,480.0
1533222560.284,1368.6404832186909,687.5271884230376,684.2452088927674,1185.6126830711023,469.2141657270405
1533222560.2879999,1272.316342218011,654.256263982859,581.9781207606718,1169.5907633670854,520.4482591987481
1533222560.292,1256.6407890533053,670.8917262029483,600.1431057759027,1176.4579700278182,302.01992774466714
1533222560.296,1281.2803547681528,693.0685574082961,620.3281065714815,1187.9001894536536,474.60432151322
1533222560.3,1305.9199204830002,681.9858194377792,740.0877597318981,1183.325176688551,871.0127252226339
1533222560.304,1290.2397797990775,687.5271884230376,788.5295569855926,1176.4579700278182,806.2921968842764
1533222560.3079998,1218.559792032462,715.2453886136439,569.1938735505291,1178.7454764103695,679.5517408012519
1533222560.312,1173.758079358621,693.0685574082961,573.9035692785166,1174.1704636452669,852.1361345698047
1533222560.316,1207.3570701043934,693.0685574082961,651.2773387968551,1171.8782697496365,914.1560623144718
1533222560.319,1337.2802018508455,704.162650643127,757.5803247602191,1208.5018094358522,865.6170467358538
1533222560.323,1337.2802018508455,681.9858194377792,724.6124546643067,1217.6565224791364,768.539015578618
1533222560.3270001,1231.9966358192407,654.256263982859,555.7385842632857,1183.325176688551,550.1106841245369
1533222560.331,1211.8390763794644,659.8089882324315,589.378874346108,1158.1485439412497,717.3049221069102
1533222560.335,1243.1993577473097,698.6212816578686,651.949758783765,1151.281337280517,846.7404560830246
1533222560.339,1323.83877054485,670.8917262029483,760.9451805143868,1176.4579700278182,981.571668545919
1533222560.343,1359.676470668549,654.256263982859,857.156355034866,1208.5018094358522,1305.1687875371056
1533222560.3470001,1296.9604954520755,720.7981128632164,622.3467444420204,1215.369016096585,1140.6751501484225
1533222560.351,1247.6767765031634,709.7040196283855,557.7572221338246,1185.6126830711023,1105.6170467358538
1533222560.355,1270.077632840084,687.5271884230376,597.452047918454,1160.436050323801,1003.1433370918379
1533222560.3579998,1348.4783362596972,731.8808508337332,713.848223234512,1176.4579700278182,881.7985594955934
1533222560.3620002,1357.4377612906221,709.7040196283855,771.7094119441815,1174.1704636452669,976.1815127597395
1533222560.3660002,1258.8794984312324,765.151775273912,636.4758316259828,1178.7454764103695,951.9092436201303
1533222560.37,1182.7175043895459,737.4335750833058,555.7385842632857,1160.436050323801,1013.9346940653979
1533222560.3739998,1198.3976450734683,604.361232586905,551.7013085222081,1123.8171981506646,657.9745495547322
1533222560.3779998,1276.798348493082,632.0794327775112,722.5951947035771,1137.5469239590511,951.9092436201303
1533222560.3820002,1285.7577735240066,615.4439705574218,797.9489484415676,1146.7016370023355,1097.526290355984
1533222560.3860002,1202.8796513485395,582.1844013815571,670.7885416957149,1137.5469239590511,941.1234093471708
1533222560.39,1169.280660602767,632.0794327775112,605.5265994006093,1137.5469239590511,1137.9745495547322
1533222560.394,1198.3976450734683,665.3503572176899,586.0153965017495,1144.4141306197841,787.4156062314472
1533222560.3979998,1285.7577735240066,665.3503572176899,710.4847453901535,1176.4579700278182,628.3121246289436
1533222560.401,1332.7981955757746,620.9966948069944,807.3683398975426,1242.8331552264376,873.7078031157236
1533222560.405,1279.0370578710088,560.0075701762094,661.36915023974,1272.5894882519203,957.3049221069102
1533222560.409,1169.280660602767,698.6212816578686,569.8676714472482,1192.479889731835,806.2921968842764
1533222560.4129999,1117.758232275928,809.5054376846075,647.9124830426873,1123.8171981506646,779.3248498515774
1533222560.417,1236.4786420943117,770.6931442591704,756.2354847863994,1160.436050323801,1092.1361345698047
1533222560.421,1375.3566113524716,853.8591000953031,781.8012233870663,1224.5237291398691,871.0127252226339
1533222560.425,1339.5189112287726,853.8591000953031,734.7056440170007,1226.8112355224205,568.9872747773661
1533222560.429,1243.1993577473097,792.8699754645182,656.6594545117524,1194.7673961143864,684.9418965874313
1533222560.4329998,1254.3974921561614,859.4118243448756,678.189295281151,1206.214303053301,943.8184872402605
1533222560.437,1317.118054891852,848.3177311100446,687.6086867371259,1201.6346027751194,1046.2921968842763
1533222560.441,1395.518758311465,776.2458685087429,828.2257606800313,1203.9221091576705,887.1887152817728
1533222560.444,1411.198898995388,781.7872374940013,863.2108907366733,1233.6784421831535,601.3447775962445
1533222560.448,1312.6406361359982,781.7872374940013,661.36915023974,1206.214303053301,590.5589433232851
1533222560.4520001,1276.798348493082,792.8699754645182,685.5900488665872,1197.0595900100168,968.0907563798697
1533222560.456,1330.5594861978477,820.5995309194385,767.672136203104,1187.9001894536536,1086.7404560830246
1533222560.46,1377.5999082496157,809.5054376846075,875.9951379468159,1201.6346027751194,744.2667464390087
1533222560.464,1364.15847694362,731.8808508337332,804.6772820400939,1213.076822200955,887.1887152817728
1533222560.468,1283.5190641460795,742.9749440685641,589.378874346108,1187.9001894536536,884.493637388683
1533222560.4720001,1249.9200734003075,826.1408999046969,655.9870345248426,1176.4579700278182,666.0653059346021
1533222560.476,1341.7576206066994,765.151775273912,719.9041368461285,1178.7454764103695,782.0199277446671
1533222560.48,1440.3204709853062,726.3394818484749,814.7690934829787,1199.3470963925681,1129.8893158754631
1533222560.4829998,1442.5591803632333,759.6104062886535,849.0831814625201,1210.7893158184036,728.0907563798697
1533222560.4870002,1368.6404832186909,765.151775273912,659.350512369201,1201.6346027751194,401.79855949559334
1533222560.4910002,1312.6406361359982,759.6104062886535,635.8020337292637,1176.4579700278182,992.3575028188784
1533222560.495,1357.4377612906221,803.9640686993491,651.949758783765,1190.192383349284,862.9219688427642
1533222560.4989998,1402.239473964463,737.4335750833058,779.7839634263368,1203.9221091576705,733.4809121660492
1533222560.5029998,1393.2800489335384,726.3394818484749,777.765325555798,1213.076822200955,844.0453781899349
1533222560.5070002,1344.000917503843,826.1408999046969,636.4758316259828,1213.076822200955,997.7531813056585
1533222560.5110002,1252.1587827782344,798.4226997140906,587.3602364755692,1194.7673961143864,1040.8965183974963
1533222560.515,1299.1992048300024,826.1408999046969,614.2721929598652,1201.6346027751194,825.1687875371057
1533222560.519,1400.0007645865362,859.4118243448756,782.4750212837854,1210.7893158184036,709.2141657270405
1533222560.5229998,1435.8384647102353,881.5886555502234,803.3310641564649,1224.5237291398691,595.9546218100651
1533222560.526,1420.1583240263128,903.7654867555711,640.5117294572511,1222.236222757318,649.8893158754631
1533222560.53,1350.7170456376243,887.1300245354818,595.4334100479151,1203.9221091576705,844.0453781899349
1533222560.534,1346.2396268817704,931.4836869461774,604.8528015038902,1192.479889731835,641.7985594955934
1533222560.5379999,1420.1583240263128,953.6718734158393,708.4661075196148,1199.3470963925681,811.6823526704559
1533222560.542,1429.1177490572375,931.4836869461774,824.1884849389537,1199.3470963925681,846.7404560830246
1533222560.546,1397.7574676893921,959.2132424010977,705.775049662166,1203.9221091576705,614.8312124628943
1533222560.55,1339.5189112287726,953.6718734158393,583.3229607344915,1206.214303053301,995.0581034125687
1533222560.554,1301.4379142079292,876.0472865649649,611.5811351024164,1167.303256984534,1016.6297719584877
1533222560.5579998,1366.3971863215468,787.3286064792597,758.2541226569382,1183.325176688551,666.0653059346021
1533222560.562,1408.960189617461,737.4335750833058,785.1660791412341,1231.3909358006022,485.39015578617943
1533222560.566,1386.5593332805404,754.057682039081,706.4474696490759,1242.8331552264376,844.0453781899349
1533222560.569,1364.15847694362,837.2349931395278,623.0191644289303,1277.164501017023,1059.7731090503255
1533222560.573,1312.6406361359982,837.2349931395278,650.6049188099453,1235.9659485657046,914.1560623144718
1533222560.5770001,1319.356764269779,798.4226997140906,680.8803531385997,1146.7016370023355,954.6043215132199
1533222560.581,1382.0773270054694,820.5995309194385,780.4563834132466,1167.303256984534,1043.5971189911868
1533222560.585,1341.7576206066994,842.7763621247863,727.3048904315647,1165.0157506019827,814.3829532641462
1533222560.589,1292.4784891770046,892.6713935207403,575.9222071490553,1155.8563500456196,571.6823526704559
1533222560.593,1301.4379142079292,920.4009489756605,632.4385558849052,1171.8782697496365,717.3049221069102
1533222560.5970001,1388.798042658467,948.1191491662668,756.9079047733093,1183.325176688551,792.8057620176266
1533222560.601,1438.0771740881623,953.6718734158393,838.3175721229161,1206.214303053301,903.3702280415123
1533222560.605,1413.4376083733148,964.7546113863561,707.7923096228956,1199.3470963925681,844.0453781899349
1533222560.6079998,1361.919767565693,964.7546113863561,543.6281349498621,1185.6126830711023,671.460984421382
1533222560.6120002,1312.6406361359982,937.0364111957499,614.2721929598652,1178.7454764103695,790.1106841245369
1533222560.6160002,1352.9603425347682,959.2132424010977,766.3272962292842,1199.3470963925681,798.2014405044066
1533222560.62,1411.198898995388,931.4836869461774,853.1190792937884,1215.369016096585,922.2468186943415
1533222560.6239998,1388.798042658467,925.942317960919,758.2541226569382,1213.076822200955,1127.1887152817728
1533222560.6279998,1328.3207768199209,964.7546113863561,581.9781207606718,1203.9221091576705,617.5262903559841
1533222560.6320002,1285.7577735240066,953.6718734158393,645.2214251852387,1174.1704636452669,493.4809121660492
1533222560.6360002,1317.118054891852,970.2959803716145,660.0229323561109,1178.7454764103695,698.428331454081
1533222560.64,1350.7170456376243,964.7546113863561,758.926542643848,1197.0595900100168,703.8184872402605
1533222560.644,1317.118054891852,964.7546113863561,807.3683398975426,1181.0376703059997,620.2213682490737
1533222560.6479998,1249.9200734003075,1025.7437360171411,629.0750780405466,1181.0376703059997,498.87659065282924
1533222560.651,1200.6409419706124,964.7546113863561,620.3281065714815,1151.281337280517,784.7205283383574
1533222560.655,1243.1993577473097,942.5777801810083,619.6556865845716,1142.1266242372328,922.2468186943415
1533222560.659,1314.879345513925,992.4841668412764,780.4563834132466,1160.436050323801,965.3901557861794
1533222560.6629999,1314.879345513925,970.2959803716145,828.8981806669411,1178.7454764103695,949.2141657270405
1533222560.667,1256.6407890533053,992.4841668412764,634.457193755444,1178.7454764103695,938.428331454081
1533222560.671,1193.9202263176146,981.3900736064454,635.1296137423539,1110.0827848291988,852.1361345698047
1533222560.675,1209.6003670015373,925.942317960919,658.0056723953813,1103.215578168466,903.3702280415123
1533222560.679,1281.2803547681528,937.0364111957499,756.9079047733093,1155.8563500456196,849.4355339761144
1533222560.6829998,1303.6766235858563,970.2959803716145,786.5109191150539,1160.436050323801,345.16878753710563
1533222560.687,1223.037210788316,903.7654867555711,639.8393094703413,1148.9938308979656,461.12340934717076
1533222560.69,1169.280660602767,876.0472865649649,592.0699322035566,1146.7016370023355,579.7731090503256
1533222560.694,1184.9608012866897,876.0472865649649,635.1296137423539,1158.1485439412497,571.6823526704559
1533222560.698,1247.6767765031634,837.2349931395278,746.8160933304245,1187.9001894536536,798.2014405044066
1533222560.7020001,1285.7577735240066,848.3177311100446,758.2541226569382,1187.9001894536536,876.4028810088133
1533222560.706,1249.9200734003075,842.7763621247863,674.8258174367925,1183.325176688551,1218.8765906528292
1533222560.71,1214.0777857573912,848.3177311100446,635.1296137423539,1174.1704636452669,1315.9546218100652
1533222560.714,1236.4786420943117,881.5886555502234,604.8528015038902,1176.4579700278182,687.636974480521
1533222560.718,1305.9199204830002,831.6822688899554,683.5714109960484,1208.5018094358522,587.8638654301953
1533222560.7220001,1364.15847694362,781.7872374940013,810.0593977549912,1245.120661608989,957.3049221069102
1533222560.726,1317.118054891852,820.5995309194385,734.0318461202817,1254.280062165352,873.7078031157236
1533222560.73,1200.6409419706124,881.5886555502234,609.5624972318776,1208.5018094358522,698.428331454081
1533222560.7329998,1151.3572230217005,826.1408999046969,627.0564401700078,1178.7454764103695,609.4355339761144
1533222560.7370002,1279.0370578710088,815.05816193418,752.8706290322316,1203.9221091576705,684.9418965874313
1533222560.7410002,1408.960189617461,887.1300245354818,836.2989342523773,1219.9440288616877,817.0780311572358
1533222560.745,1391.0367520363943,898.2241177703128,692.3183824651135,1201.6346027751194,825.1687875371057
1533222560.7489998,1323.83877054485,920.4009489756605,567.1766135897996,1201.6346027751194,1022.0199277446671
1533222560.7529998,1301.4379142079292,909.3068557408296,674.1520195400734,1219.9440288616877,1146.065305934602
1533222560.7570002,1388.798042658467,942.5777801810083,707.1198896359857,1206.214303053301,741.571668545919
1533222560.7610002,1447.036599119087,948.1191491662668,812.07803562553,1167.303256984534,512.3575028188784
1533222560.765,1391.0367520363943,909.3068557408296,822.1698470684148,1167.303256984534,795.506362611317
1533222560.769,1299.1992048300024,898.2241177703128,634.457193755444,1171.8782697496365,1108.3121246289436
1533222560.7729998,1254.3974921561614,876.0472865649649,641.8579473408802,1132.9719111939487,1154.1560623144717
1533222560.776,1301.4379142079292,853.8591000953031,695.0094403225621,1123.8171981506646,1062.473709644016
1533222560.78,1346.2396268817704,815.05816193418,793.2392527135801,1135.2594175765,817.0780311572358
1533222560.784,1290.2397797990775,776.2458685087429,777.0915276590789,1119.237497872483,865.6170467358538
1533222560.7879999,1211.8390763794644,787.3286064792597,607.545237271148,1121.5250042550342,938.428331454081
1533222560.792,1314.879345513925,1036.837829251972,635.8020337292637,1206.214303053301,911.460984421382
1533222560.796,1384.3206239026135,1092.2855848974984,674.8258174367925,1224.5237291398691,1078.6496997031547
1533222560.8,1335.0369049537017,948.1191491662668,782.4750212837854,1171.8782697496365,644.493637388683
1533222560.804,1299.1992048300024,903.7654867555711,822.1698470684148,1158.1485439412497,536.6297719584877
1533222560.8079998,1258.8794984312324,864.953193330134,630.4199180143663,1130.6797172983183,800.8965183974964
1533222560.812,1193.9202263176146,820.5995309194385,623.6915844158401,1119.237497872483,647.1887152817728
1533222560.815,1207.3570701043934,803.9640686993491,668.0974838382662,1126.1047045332157,773.9291713647974
1533222560.819,1258.8794984312324,803.9640686993491,760.9451805143868,1144.4141306197841,960.0
1533222560.823,1252.1587827782344,770.6931442591704,779.1101655296177,1174.1704636452669,787.4156062314472
1533222560.8270001,1160.3166480526252,704.162650643127,607.545237271148,1169.5907633670854,838.6496997031549
1533222560.831,1104.3168009699325,765.151775273912,573.2311492916067,1162.7235567063524,919.5517408012519
1533222560.835,1142.3977979907756,842.7763621247863,669.4423238120859,1165.0157506019827,1324.0453781899348
1533222560.839,1198.3976450734683,831.6822688899554,760.2713826176678,1144.4141306197841,1232.3575028188784
1533222560.843,1202.8796513485395,820.5995309194385,721.2489768199482,1148.9938308979656,720.0
1533222560.8470001,1158.0779386746983,837.2349931395278,608.2176572580579,1167.303256984534,620.2213682490737
1533222560.851,1133.4383729598508,853.8591000953031,640.5117294572511,1119.237497872483,865.6170467358538
1533222560.855,1158.0779386746983,826.1408999046969,625.7102222863789,1080.326451803716,1094.8312124628944
1533222560.8579998,1240.9606483693826,820.5995309194385,699.0467160636398,1112.37029121175,674.1560623144718
1533222560.8620002,1283.5190641460795,848.3177311100446,798.6213684284775,1112.37029121175,485.39015578617943
1533222560.8660002,1229.7579264413139,892.6713935207403,645.8952230819577,1082.6139581862672,612.1361345698047
1533222560.87,1149.1185136437734,870.4945623153925,595.4334100479151,1059.7295193345963,827.8638654301953
1533222560.8739998,1115.5195228980012,876.0472865649649,598.7982658020829,1036.8403929698466,711.9092436201303
1533222560.8779998,1155.8392292967715,787.3286064792597,697.0280781931009,1068.8842323778806,709.2141657270405
1533222560.8820002,1220.798501410389,648.7148949976005,849.75560144943,1107.7952784466474,957.3049221069102
1533222560.8860002,1180.4787950116188,737.4335750833058,671.4609616826248,1073.459245142983,822.4737096440159
1533222560.89,1097.6006728361517,787.3286064792597,530.1714677528096,1013.9512666050965,1132.584393768553
1533222560.894,1151.3572230217005,826.1408999046969,606.1990193875191,1004.7965535618124,1232.3575028188784
1533222560.8979998,1287.9964829019336,842.7763621247863,766.3272962292842,1027.6856799265622,1035.506362611317
1533222560.901,1346.2396268817704,859.4118243448756,805.3497020270038,1048.282612395682,738.8765906528292
1533222560.905,1261.1182078091592,881.5886555502234,641.8579473408802,1052.8623126738635,644.493637388683
1533222560.909,1171.5193699806941,903.7654867555711,546.9916127942206,1034.5528865872952,693.032652967301
1533222560.9129999,1131.199663581924,859.4118243448756,615.6184108434941,986.487127475244,574.3829532641462
1533222560.917,1144.6365073687025,781.7872374940013,675.4982374237023,970.465207771227,916.8511402075615
1533222560.921,1191.6769294204705,798.4226997140906,753.5444269289507,970.465207771227,968.0907563798697
1533222560.925,1158.0779386746983,809.5054376846075,688.2811067240358,977.3324144319599,622.9219688427642
1533222560.929,1063.9970945711623,776.2458685087429,524.7893520379122,1009.371566326915,617.5262903559841
1533222560.9329998,1063.9970945711623,803.9640686993491,557.7572221338246,997.9293469010795,711.9092436201303
1533222560.937,1140.1590886128488,826.1408999046969,612.2535550893263,1011.6637602225453,1032.8057620176266
1533222560.94,1225.28050768546,831.6822688899554,752.8706290322316,1043.7075996305794,1191.9092436201302
1533222560.944,1238.7173514722388,859.4118243448756,728.6497304053844,1059.7295193345963,884.493637388683
1533222560.948,1144.6365073687025,859.4118243448756,555.7385842632857,1048.282612395682,701.1234093471708
1533222560.9520001,1097.6006728361517,909.3068557408296,593.4161500871857,1062.0170257171476,919.5517408012519
1533222560.956,1178.240085633692,942.5777801810083,667.4250638513563,1114.6577975943014,808.9872747773661
1533222560.96,1263.356917187086,881.5886555502234,762.9638183849256,1128.392210915767,606.7404560830246
1533222560.964,1274.5596391151548,870.4945623153925,714.5206432214219,1098.6358778902843,895.2794716616426
1533222560.968,1169.280660602767,859.4118243448756,596.7796279315442,1078.0389454211647,1065.1687875371056
1533222560.9720001,1111.0375166229303,876.0472865649649,579.2870629032232,1089.4811648470002,1175.7277308603907
1533222560.976,1182.7175043895459,937.0364111957499,656.6594545117524,1073.459245142983,1102.921968842764
1533222560.98,1240.9606483693826,898.2241177703128,762.9638183849256,1057.4373254389661,1046.2921968842763
1533222560.9829998,1229.7579264413139,837.2349931395278,692.9908024520233,1087.1936584644488,946.5135651333502
1533222560.9870002,1160.3166480526252,887.1300245354818,622.3467444420204,1080.326451803716,1024.7205283383576
1533222560.9910002,1115.5195228980012,853.8591000953031,625.037802299469,1009.371566326915,1043.5971189911868
1533222560.995,1126.717657306853,820.5995309194385,600.1431057759027,977.3324144319599,1032.8057620176266
1533222560.9989998,1173.758079358621,826.1408999046969,716.5392810919607,1009.371566326915,892.5843937685528
1533222561.0029998,1238.7173514722388,820.5995309194385,772.3818319310914,1041.415405734949,1089.4355339761144
1533222561.0070002,1187.1995106646166,826.1408999046969,563.1393378487219,1064.304532099699,906.0653059346021
1533222561.0110002,1117.758232275928,815.05816193418,590.0512943330178,1041.415405734949,622.9219688427642
1533222561.015,1184.9608012866897,848.3177311100446,598.1258458151731,1023.1059796483808,930.3375750742113
1533222561.019,1252.1587827782344,876.0472865649649,664.0602080971886,1064.304532099699,571.6823526704559
1533222561.0229998,1243.1993577473097,870.4945623153925,834.2802963818385,1080.326451803716,509.6624249257887
1533222561.026,1200.6409419706124,853.8591000953031,635.8020337292637,1059.7295193345963,663.3702280415123
1533222561.03,1149.1185136437734,826.1408999046969,512.0064827375787,1050.5748062913121,388.31212462894354
1533222561.034,1180.4787950116188,848.3177311100446,628.4012801438275,1052.8623126738635,453.03265296730103
1533222561.0379999,1258.8794984312324,842.7763621247863,713.1758032476022,1032.2606926916649,844.0453781899349
1533222561.042,1296.9604954520755,837.2349931395278,816.1153113666077,1032.2606926916649,849.4355339761144
1533222561.046,1276.798348493082,815.05816193418,719.9041368461285,1029.9731863091135,1113.7078031157237
1533222561.05,1234.2399327163848,803.9640686993491,543.6281349498621,1011.6637602225453,876.4028810088133
1533222561.054,1220.798501410389,842.7763621247863,612.2535550893263,1007.0840599443637,687.636974480521
1533222561.0579998,1252.1587827782344,815.05816193418,736.7242818875396,1007.0840599443637,986.967347032699
1533222561.062,1301.4379142079292,831.6822688899554,799.2951663251965,1027.6856799265622,1321.3503002968453
1533222561.065,1265.6002140842302,920.4009489756605,676.8444553073313,1055.1498190564148,1154.1560623144717
1533222561.069,1218.559792032462,970.2959803716145,585.3415986050303,1055.1498190564148,949.2141657270405
1533222561.073,1202.8796513485395,937.0364111957499,579.2870629032232,1034.5528865872952,822.4737096440159
1533222561.0770001,1220.798501410389,914.8595799904022,680.2079331516899,1050.5748062913121,533.9291713647974
1533222561.081,1243.1993577473097,964.7546113863561,828.2257606800313,1089.4811648470002,825.1687875371057
1533222561.085,1216.316495135318,1003.5669048117933,707.1198896359857,1123.8171981506646,636.4028810088133
1533222561.089,1158.0779386746983,942.5777801810083,584.6691786181206,1105.503084551017,865.6170467358538
1533222561.093,1131.199663581924,892.6713935207403,551.0288885352983,1080.326451803716,887.1887152817728
1533222561.0970001,1211.8390763794644,914.8595799904022,647.9124830426873,1100.9280717859147,846.7404560830246
1533222561.101,1267.838923462157,887.1300245354818,766.3272962292842,1112.37029121175,1043.5971189911868
1533222561.105,1227.519217063387,876.0472865649649,675.4982374237023,1084.9061520818975,881.7985594955934
1533222561.1079998,1153.6005199188444,881.5886555502234,524.1169320510023,1062.0170257171476,711.9092436201303
1533222561.1120002,1124.4789479289261,925.942317960919,554.3923663796568,1055.1498190564148,895.2794716616426
1533222561.1160002,1162.5599449497693,914.8595799904022,608.2176572580579,1055.1498190564148,1051.6823526704559
1533222561.12,1211.8390763794644,876.0472865649649,734.0318461202817,1050.5748062913121,738.8765906528292
1533222561.1239998,1220.798501410389,920.4009489756605,721.9213968068581,1043.7075996305794,1016.6297719584877
1533222561.1279998,1182.7175043895459,959.2132424010977,537.5722213382456,1027.6856799265622,957.3049221069102
1533222561.1320002,1158.0779386746983,964.7546113863561,608.2176572580579,1041.415405734949,857.5262903559841
1533222561.1360002,1160.3166480526252,931.4836869461774,606.871439374429,1036.8403929698466,846.7404560830246
1533222561.14,1247.6767765031634,931.4836869461774,715.8668611050508,1048.282612395682,471.90924362013027
1533222561.144,1283.5190641460795,981.3900736064454,830.9168185374799,1068.8842323778806,620.2213682490737
1533222561.1479998,1169.280660602767,964.7546113863561,612.9273529860454,1057.4373254389661,1073.2595439169754
1533222561.151,1119.9969416538552,937.0364111957499,557.7572221338246,1036.8403929698466,1089.4355339761144
1533222561.155,1155.8392292967715,937.0364111957499,647.9124830426873,1027.6856799265622,1245.8439376855283
1533222561.159,1252.1587827782344,959.2132424010977,758.2541226569382,1048.282612395682,1062.473709644016
1533222561.1629999,1252.1587827782344,942.5777801810083,761.6176005012967,1055.1498190564148,1022.0199277446671
1533222561.167,1162.5599449497693,964.7546113863561,580.6319028770429,1027.6856799265622,1156.8511402075615
1533222561.171,1155.8392292967715,964.7546113863561,538.2460192349648,1011.6637602225453,968.0907563798697
1533222561.175,1189.4382200425437,914.8595799904022,626.3826422732888,1018.5309668832781,803.5971189911867
1533222561.179,1245.4380671252366,903.7654867555711,774.4004698016302,1036.8403929698466,997.7531813056585
1533222561.1829998,1263.356917187086,903.7654867555711,851.1004414232495,1062.0170257171476,1038.2014405044067
1533222561.187,1216.316495135318,931.4836869461774,628.4012801438275,1078.0389454211647,625.6170467358538
1533222561.19,1182.7175043895459,909.3068557408296,551.7013085222081,1094.0608651251816,771.2340934717076
1533222561.194,1180.4787950116188,859.4118243448756,614.2721929598652,1089.4811648470002,868.3121246289436
1533222561.198,1229.7579264413139,864.953193330134,746.1422954337053,1110.0827848291988,906.0653059346021
1533222561.2020001,1258.8794984312324,837.2349931395278,771.7094119441815,1146.7016370023355,914.1560623144718
1533222561.206,1205.118360726466,842.7763621247863,621.6729465453012,1162.7235567063524,749.6624249257887
1533222561.21,1128.9563666847798,853.8591000953031,571.886309317787,1144.4141306197841,892.5843937685528
1533222561.214,1149.1185136437734,864.953193330134,590.0512943330178,1128.392210915767,962.6950778930898
1533222561.218,1245.4380671252366,881.5886555502234,683.5714109960484,1128.392210915767,738.8765906528292
1533222561.2220001,1283.5190641460795,848.3177311100446,808.0407598844524,1119.237497872483,968.0907563798697
1533222561.226,1317.118054891852,948.1191491662668,692.3183824651135,1169.5907633670854,900.6751501484226
1533222561.23,1299.1992048300024,1020.2023670318827,536.8998013513358,1229.0987419049718,485.39015578617943
1533222561.2329998,1144.6365073687025,876.0472865649649,623.0191644289303,1110.0827848291988,663.3702280415123
1533222561.2370002,1135.6770823377778,815.05816193418,688.954904620755,1039.1278993523977,827.8638654301953
1533222561.2410002,1231.9966358192407,898.2241177703128,790.5481948561314,1091.7733587426303,803.5971189911867
1533222561.245,1227.519217063387,876.0472865649649,741.4325997057178,1100.9280717859147,846.7404560830246
1533222561.2489998,1207.3570701043934,787.3286064792597,559.7758600043634,1126.1047045332157,860.2213682490737
1533222561.2529998,1160.3166480526252,742.9749440685641,593.4161500871857,1123.8171981506646,755.0525807119682
1533222561.2570002,1167.0373637056232,704.162650643127,704.4288317785371,1116.9499914899316,466.5135651333502
1533222561.2610002,1243.1993577473097,748.5163130538226,792.5668327266702,1132.9719111939487,682.2468186943415
1533222561.265,1205.118360726466,759.6104062886535,657.3318744986623,1112.37029121175,1051.6823526704559
1533222561.269,1117.758232275928,770.6931442591704,559.7758600043634,1096.348371507733,709.2141657270405
1533222561.2729998,1097.6006728361517,803.9640686993491,637.8206715998025,1096.348371507733,787.4156062314472
1533222561.276,1158.0779386746983,787.3286064792597,623.6915844158401,1094.0608651251816,919.5517408012519
1533222561.28,1249.9200734003075,765.151775273912,748.8347312009632,1112.37029121175,884.493637388683
1533222561.284,1218.559792032462,803.9640686993491,768.345934099823,1116.9499914899316,924.9418965874313
1533222561.2879999,1151.3572230217005,837.2349931395278,568.5214535636193,1110.0827848291988,941.1234093471708
1533222561.292,1146.8798042658466,859.4118243448756,602.1617436464414,1091.7733587426303,916.8511402075615
1533222561.296,1164.798654327696,925.942317960919,674.1520195400734,1089.4811648470002,862.9219688427642
1533222561.3,1205.118360726466,1003.5669048117933,763.6362383718355,1114.6577975943014,706.5135651333502
1533222561.304,1209.6003670015373,1009.1082737970517,756.9079047733093,1100.9280717859147,736.1815127597395
1533222561.3079998,1151.3572230217005,1009.1082737970517,589.378874346108,1082.6139581862672,906.0653059346021
1533222561.312,1104.3168009699325,1047.920567222489,564.4855557323509,1084.9061520818975,687.636974480521
1533222561.315,1111.0375166229303,1020.2023670318827,674.1520195400734,1059.7295193345963,765.8439376855282
1533222561.319,1189.4382200425437,1014.6609980466242,812.07803562553,1057.4373254389661,1040.8965183974963
1533222561.323,1236.4786420943117,1047.920567222489,853.7914992806983,1084.9061520818975,844.0453781899349
1533222561.3270001,1171.5193699806941,992.4841668412764,653.9683966543038,1075.7514390386134,555.506362611317
1533222561.331,1124.4789479289261,975.848704621187,635.1296137423539,1057.4373254389661,935.7277308603907
1533222561.335,1137.9203792349217,925.942317960919,676.8444553073313,1064.304532099699,1208.0907563798698
1533222561.339,1209.6003670015373,937.0364111957499,772.3818319310914,1107.7952784466474,1030.1106841245369
1533222561.343,1249.9200734003075,986.9314425917039,762.9638183849256,1126.1047045332157,566.2921968842764
1533222561.3470001,1173.758079358621,937.0364111957499,652.6221787706749,1091.7733587426303,285.8439376855282
1533222561.351,1111.0375166229303,925.942317960919,619.6556865845716,1068.8842323778806,339.7731090503256
1533222561.355,1135.6770823377778,920.4009489756605,656.6594545117524,1066.5920384822502,701.1234093471708
1533222561.3579998,1178.240085633692,887.1300245354818,754.8892669027704,1071.1717387604317,1108.3121246289436
1533222561.3620002,1193.9202263176146,876.0472865649649,777.765325555798,1098.6358778902843,865.6170467358538
1533222561.3660002,1133.4383729598508,881.5886555502234,690.2997445945747,1096.348371507733,679.5517408012519
1533222561.37,1095.3573759390076,942.5777801810083,644.5490051983288,1098.6358778902843,773.9291713647974
1533222561.3739998,1146.8798042658466,1009.1082737970517,654.6408166412136,1121.5250042550342,997.7531813056585
1533222561.3779998,1182.7175043895459,937.0364111957499,699.7191360505497,1082.6139581862672,1127.1887152817728
1533222561.3820002,1207.3570701043934,887.1300245354818,816.1153113666077,1089.4811648470002,927.636974480521
1533222561.3860002,1153.6005199188444,892.6713935207403,713.848223234512,1123.8171981506646,684.9418965874313
1533222561.39,1052.7989601623106,859.4118243448756,613.5997729729553,1098.6358778902843,682.2468186943415
1533222561.394,1025.9206850695361,815.05816193418,654.6408166412136,1084.9061520818975,857.5262903559841
1533222561.397,1106.5600978670764,826.1408999046969,746.1422954337053,1107.7952784466474,1151.4609844213821
1533222561.401,1200.6409419706124,887.1300245354818,779.1101655296177,1121.5250042550342,992.3575028188784
1533222561.405,1178.240085633692,898.2241177703128,679.53551316478,1119.237497872483,798.2014405044066
1533222561.409,1106.5600978670764,876.0472865649649,616.9632508173138,1082.6139581862672,1024.7205283383576
1533222561.4129999,1081.920532152229,853.8591000953031,670.116121708805,1045.9951060131307,819.7731090503256
1533222561.417,1202.8796513485395,1014.6609980466242,697.0280781931009,1116.9499914899316,865.6170467358538
1533222561.421,1310.397339238854,1186.5342787041482,824.1884849389537,1190.192383349284,949.2141657270405
1533222561.425,1265.6002140842302,1136.639247308194,826.2071228094925,1169.5907633670854,935.7277308603907
1533222561.429,1169.280660602767,1108.9096918532737,620.3281065714815,1126.1047045332157,1038.2014405044067
1533222561.4329998,1111.0375166229303,1075.6501226774092,615.6184108434941,1075.7514390386134,833.2595439169754
1533222561.437,1202.8796513485395,1053.4732914720614,740.0877597318981,1100.9280717859147,604.0453781899349
1533222561.44,1276.798348493082,1042.3791982372304,845.7183257083523,1123.8171981506646,566.2921968842764
1533222561.444,1189.4382200425437,959.2132424010977,751.5257890584119,1089.4811648470002,749.6624249257887
1533222561.448,1115.5195228980012,986.9314425917039,601.4893236595316,1114.6577975943014,830.5589433232851
1533222561.4520001,1084.159241530156,970.2959803716145,589.378874346108,1057.4373254389661,933.032652967301
1533222561.456,1104.3168009699325,898.2241177703128,692.9908024520233,1009.371566326915,933.032652967301
1533222561.46,1189.4382200425437,892.6713935207403,828.2257606800313,1050.5748062913121,943.8184872402605
1533222561.464,1164.798654327696,909.3068557408296,777.0915276590789,1052.8623126738635,876.4028810088133
1533222561.468,1117.758232275928,914.8595799904022,633.1109758718151,1057.4373254389661,1092.1361345698047
1533222561.4720001,1077.438525877158,848.3177311100446,625.037802299469,1036.8403929698466,1213.4809121660492
1533222561.476,1052.7989601623106,815.05816193418,616.2908308304039,1023.1059796483808,973.4809121660492
1533222561.48,1144.6365073687025,831.6822688899554,751.5257890584119,1052.8623126738635,822.4737096440159
1533222561.4829998,1187.1995106646166,826.1408999046969,849.75560144943,1068.8842323778806,968.0907563798697
1533222561.4870002,1113.2808135200744,815.05816193418,639.1668894834314,1055.1498190564148,903.3702280415123
1533222561.4910002,1084.159241530156,798.4226997140906,596.1072079446343,1043.7075996305794,924.9418965874313
1533222561.495,1128.9563666847798,909.3068557408296,651.2773387968551,1087.1936584644488,884.493637388683
1533222561.4989998,1276.798348493082,1142.1806162934524,781.8012233870663,1183.325176688551,614.8312124628943
1533222561.5029998,1438.0771740881623,1413.8666702715122,860.5198328792245,1293.18642072104,566.2921968842764
1533222561.5070002,1368.6404832186909,1513.6680883277345,772.3818319310914,1313.7880407032385,606.7404560830246
1533222561.5110002,1182.7175043895459,1214.2638341590684,668.769903825176,1197.0595900100168,865.6170467358538
1533222561.515,1131.199663581924,1020.2023670318827,626.3826422732888,1089.4811648470002,808.9872747773661
1533222561.519,1191.6769294204705,1003.5669048117933,773.0556298278104,1055.1498190564148,617.5262903559841
1533222561.522,1247.6767765031634,1025.7437360171411,843.6996878378135,1084.9061520818975,946.5135651333502
1533222561.526,1198.3976450734683,986.9314425917039,641.1855273539703,1078.0389454211647,1092.1361345698047
1533222561.53,1077.438525877158,920.4009489756605,567.1766135897996,1020.8184732658294,833.2595439169754
1533222561.534,1061.7583851932354,914.8595799904022,601.4893236595316,1011.6637602225453,873.7078031157236
1533222561.5379999,1099.8393822140786,864.953193330134,687.6086867371259,997.9293469010795,854.8312124628943
1533222561.542,1133.4383729598508,848.3177311100446,829.570600653851,1013.9512666050965,803.5971189911867
1533222561.546,1126.717657306853,959.2132424010977,656.6594545117524,1078.0389454211647,938.428331454081
1533222561.55,1068.4791008462332,1059.0146604573197,594.0885700740955,1080.326451803716,668.7659065282924
1533222561.554,1084.159241530156,1086.732860647926,702.4101939079983,1089.4811648470002,744.2667464390087
1533222561.5579998,1158.0779386746983,1075.6501226774092,692.9908024520233,1123.8171981506646,879.097958901903
1533222561.562,1216.316495135318,1047.920567222489,822.843644965134,1112.37029121175,695.7277308603907
1533222561.565,1160.3166480526252,970.2959803716145,776.419107672169,1078.0389454211647,919.5517408012519
1533222561.569,1122.240238550999,998.0255358265348,600.8169036726217,1091.7733587426303,1232.3575028188784
1533222561.573,1191.6769294204705,1114.4624161028462,639.1668894834314,1165.0157506019827,978.8765906528292
1533222561.5770001,1281.2803547681528,1230.8992963791577,779.7839634263368,1215.369016096585,808.9872747773661
1533222561.581,1287.9964829019336,1175.4515407336312,864.5571086203022,1183.325176688551,962.6950778930898
1533222561.585,1175.9967887365478,992.4841668412764,712.5020053508831,1098.6358778902843,852.1361345698047
1533222561.589,1050.5602507843837,876.0472865649649,559.1020621076443,1011.6637602225453,382.9219688427641
1533222561.593,1041.6008257534588,809.5054376846075,599.4706857889928,970.465207771227,442.2468186943415
1533222561.5970001,1095.3573759390076,803.9640686993491,657.3318744986623,959.0183008323125,690.3375750742113
1533222561.601,1117.758232275928,765.151775273912,793.2392527135801,956.7307944497613,590.5589433232851
1533222561.605,1093.1186665610808,737.4335750833058,795.9303105710288,986.487127475244,631.0127252226339
1533222561.6079998,1070.7178102241603,798.4226997140906,583.9967586312107,1025.393486030932,598.6496997031549
1533222561.6120002,1119.9969416538552,914.8595799904022,597.452047918454,1043.7075996305794,444.94189658743124
1533222561.6160002,1153.6005199188444,931.4836869461774,728.6497304053844,1013.9512666050965,482.6950778930897
1533222561.62,1178.240085633692,820.5995309194385,827.5519627833122,1004.7965535618124,391.0127252226339
1533222561.6239998,1189.4382200425437,815.05816193418,754.8892669027704,1027.6856799265622,614.8312124628943
1533222561.6279998,1095.3573759390076,826.1408999046969,635.1296137423539,1009.371566326915,1127.1887152817728
1533222561.6320002,1030.39810382539,815.05816193418,616.2908308304039,956.7307944497613,1035.506362611317
1533222561.6360002,1093.1186665610808,809.5054376846075,666.7512659546372,963.5980011104941,792.8057620176266
1533222561.64,1135.6770823377778,759.6104062886535,760.9451805143868,968.1730138755968,871.0127252226339
1533222561.644,1160.3166480526252,815.05816193418,748.1609333042442,1000.2168532836308,871.0127252226339
1533222561.647,1164.798654327696,914.8595799904022,662.0415702266498,1057.4373254389661,782.0199277446671
1533222561.651,1070.7178102241603,887.1300245354818,657.3318744986623,1007.0840599443637,924.9418965874313
1533222561.655,1028.1593944474632,842.7763621247863,613.5997729729553,929.2666553199089,1038.2014405044067
1533222561.659,1072.9565196020872,770.6931442591704,699.7191360505497,910.9525417202615,846.7404560830246
1533222561.6629999,1149.1185136437734,826.1408999046969,839.6637900065451,995.6418405185283,625.6170467358538
1533222561.667,1063.9970945711623,864.953193330134,677.5168752942411,1016.2387729876478,679.5517408012519
1533222561.671,943.0379753748521,803.9640686993491,595.4334100479151,984.1949335796138,844.0453781899349
1533222561.675,999.0378224575448,809.5054376846075,619.6556865845716,991.0621402403467,738.8765906528292
1533222561.679,1093.1186665610808,781.7872374940013,762.2900204882066,968.1730138755968,871.0127252226339
1533222561.6829998,1124.4789479289261,781.7872374940013,767.672136203104,963.5980011104941,900.6751501484226
1533222561.687,1061.7583851932354,759.6104062886535,608.2176572580579,981.9074271970625,800.8965183974964
1533222561.69,1007.9972474884696,748.5163130538226,599.4706857889928,968.1730138755968,771.2340934717076
1533222561.694,1046.0782445093128,737.4335750833058,659.350512369201,963.5980011104941,844.0453781899349
1533222561.698,1122.240238550999,765.151775273912,742.1063976024369,988.7746338577954,1205.3901557861795
1533222561.7020001,1164.798654327696,776.2458685087429,798.6213684284775,997.9293469010795,1024.7205283383576
1533222561.706,1111.0375166229303,731.8808508337332,674.1520195400734,993.354334135977,943.8184872402605
1533222561.71,1046.0782445093128,798.4226997140906,607.545237271148,981.9074271970625,1299.7731090503255
1533222561.714,1055.0376695402376,798.4226997140906,616.9632508173138,981.9074271970625,1342.921968842764
1533222561.718,1122.240238550999,754.057682039081,729.9959482890133,981.9074271970625,965.3901557861794
1533222561.7220001,1164.798654327696,776.2458685087429,836.9713542392872,981.9074271970625,911.460984421382
1533222561.726,1106.5600978670764,754.057682039081,699.7191360505497,986.487127475244,1027.415606231447
1533222561.73,1005.7585381105426,770.6931442591704,571.2125114210679,977.3324144319599,1038.2014405044067
1533222561.7329998,978.8802630177682,781.7872374940013,595.4334100479151,972.7527141537784,989.6624249257887
1533222561.7370002,1061.7583851932354,781.7872374940013,664.7326280840985,977.3324144319599,884.493637388683
1533222561.7410002,1160.3166480526252,792.8699754645182,795.257890584119,1002.5090471792611,711.9092436201303
1533222561.745,1142.3977979907756,792.8699754645182,822.1698470684148,1013.9512666050965,674.1560623144718
1533222561.7489998,1068.4791008462332,815.05816193418,621.6729465453012,1009.371566326915,776.6297719584877
1533222561.7529998,1055.0376695402376,826.1408999046969,610.2362951285967,1013.9512666050965,862.9219688427642
1533222561.7570002,1113.2808135200744,837.2349931395278,758.2541226569382,1007.0840599443637,992.3575028188784
1533222561.7610002,1144.6365073687025,765.151775273912,841.0086299803647,981.9074271970625,1097.526290355984
1533222561.765,1111.0375166229303,781.7872374940013,734.7056440170007,981.9074271970625,1132.584393768553
1533222561.769,1052.7989601623106,798.4226997140906,611.5811351024164,993.354334135977,1186.5190878339508
1533222561.772,1117.758232275928,792.8699754645182,616.2908308304039,977.3324144319599,1221.571668545919
1533222561.776,1162.5599449497693,809.5054376846075,703.0826138949081,963.5980011104941,935.7277308603907
1533222561.78,1169.280660602767,770.6931442591704,792.5668327266702,977.3324144319599,706.5135651333502
1533222561.784,1155.8392292967715,770.6931442591704,777.0915276590789,981.9074271970625,865.6170467358538
1533222561.7879999,1057.2809664373815,859.4118243448756,637.8206715998025,993.354334135977,609.4355339761144
1533222561.792,1003.5198287326157,876.0472865649649,625.037802299469,1007.0840599443637,490.7858342729595
1533222561.796,1032.6368132033172,826.1408999046969,697.0280781931009,993.354334135977,787.4156062314472
1533222561.8,1111.0375166229303,815.05816193418,810.7318177419011,1009.371566326915,542.0199277446671
1533222561.804,1135.6770823377778,820.5995309194385,793.2392527135801,1048.282612395682,455.72773086039075
1533222561.8079998,1057.2809664373815,831.6822688899554,631.7661358979954,1020.8184732658294,903.3702280415123
1533222561.812,956.4794066808478,809.5054376846075,629.7474980274565,984.1949335796138,1086.7404560830246
1533222561.815,969.9208379868435,748.5163130538226,617.6370487140329,981.9074271970625,978.8765906528292
1533222561.819,1079.677235255085,776.2458685087429,718.5579189624996,1013.9512666050965,1046.2921968842763
1533222561.823,1137.9203792349217,837.2349931395278,733.3594261333718,1039.1278993523977,1232.3575028188784
1533222561.8270001,1041.6008257534588,815.05816193418,522.7707141673734,1004.7965535618124,981.571668545919
1533222561.831,927.3578346909294,748.5163130538226,549.0102506647595,972.7527141537784,876.4028810088133
1533222561.835,974.3982567426973,765.151775273912,598.7982658020829,961.3104947279429,1051.6823526704559
1533222561.839,1093.1186665610808,848.3177311100446,717.2117010788705,940.7088747457443,1008.539015578618
1533222561.843,1211.8390763794644,970.2959803716145,786.5109191150539,1023.1059796483808,695.7277308603907
1533222561.8470001,1111.0375166229303,859.4118243448756,601.4893236595316,1045.9951060131307,714.6043215132199
1533222561.851,904.9569783540088,693.0685574082961,503.2595112685136,906.3775289551589,771.2340934717076
1533222561.855,913.9209909041507,665.3503572176899,579.959482890133,897.2228159118747,927.636974480521
1533222561.8579998,1007.9972474884696,670.8917262029483,642.53036732779,922.399448659176,1073.2595439169754
1533222561.8620002,1057.2809664373815,648.7148949976005,766.3272962292842,933.8416680850114,871.0127252226339
1533222561.8660002,985.596391151549,604.361232586905,731.340788262833,954.44328806721,892.5843937685528
1533222561.87,873.5966969861636,620.9966948069944,524.1169320510023,929.2666553199089,582.4681869434153
1533222561.8739998,895.997553323084,593.2671393520741,549.6826706516694,940.7088747457443,520.4482591987481
1533222561.8779998,987.8396880486931,598.8198636016465,669.4423238120859,965.8855074930455,539.3248498515774
1533222561.8820002,1025.9206850695361,609.9026015721633,823.5160649520438,1002.5090471792611,628.3121246289436
1533222561.8860002,1010.2405443856136,620.9966948069944,713.848223234512,1036.8403929698466,879.097958901903
1533222561.89,974.3982567426973,637.6321570270836,541.6094970793233,1027.6856799265622,544.7205283383574
1533222561.894,992.3171068045469,626.5380637922527,594.0885700740955,1032.2606926916649,625.6170467358538
1533222561.897,1050.5602507843837,626.5380637922527,731.340788262833,1027.6856799265622,755.0525807119682
1533222561.901,1088.6366602860098,637.6321570270836,818.8063692240563,1020.8184732658294,752.3575028188784
1533222561.905,1063.9970945711623,665.3503572176899,686.262468853497,1059.7295193345963,911.460984421382
1533222561.909,983.3576817736222,687.5271884230376,559.7758600043634,1057.4373254389661,827.8638654301953
1533222561.9129999,945.2766847527789,665.3503572176899,616.9632508173138,1039.1278993523977,792.8057620176266
1533222561.917,1025.9206850695361,681.9858194377792,739.4153397449883,1057.4373254389661,1000.4482591987481
1533222561.921,1093.1186665610808,665.3503572176899,775.0742676983493,1059.7295193345963,1100.2213682490737
1533222561.925,1057.2809664373815,665.3503572176899,711.1571653770634,1057.4373254389661,852.1361345698047
1533222561.929,985.596391151549,659.8089882324315,608.8900772449678,1057.4373254389661,531.2340934717076
1533222561.9329998,936.3172597218542,626.5380637922527,623.0191644289303,1032.2606926916649,401.79855949559334
1533222561.937,987.8396880486931,648.7148949976005,656.6594545117524,1020.8184732658294,617.5262903559841
1533222561.94,1097.6006728361517,693.0685574082961,772.3818319310914,1055.1498190564148,957.3049221069102
1533222561.944,1108.7988072450034,709.7040196283855,808.7145577811715,1050.5748062913121,1100.2213682490737
1533222561.948,1012.4792537635406,709.7040196283855,613.5997729729553,1018.5309668832781,1143.3702280415123
1533222561.9520001,987.8396880486931,742.9749440685641,615.6184108434941,1029.9731863091135,1065.1687875371056
1533222561.956,1052.7989601623106,704.162650643127,779.7839634263368,1013.9512666050965,897.9745495547322
1533222561.96,1122.240238550999,726.3394818484749,930.4928488121269,1009.371566326915,773.9291713647974
1533222561.964,1158.0779386746983,787.3286064792597,841.0086299803647,1036.8403929698466,695.7277308603907
1533222561.968,1081.920532152229,770.6931442591704,715.194441118141,1034.5528865872952,1008.539015578618
1533222561.9720001,1003.5198287326157,776.2458685087429,734.0318461202817,1009.371566326915,1127.1887152817728
1533222561.976,1055.0376695402376,803.9640686993491,756.2354847863994,986.487127475244,1086.7404560830246
1533222561.9789999,1124.4789479289261,809.5054376846075,886.0869493897007,993.354334135977,1315.9546218100652
1533222561.9829998,1137.9203792349217,776.2458685087429,961.4407031276912,1011.6637602225453,1111.012725222634
1533222561.9870002,1077.438525877158,759.6104062886535,757.5803247602191,1011.6637602225453,1059.7731090503255
1533222561.9910002,1005.7585381105426,776.2458685087429,684.9176288796773,1000.2168532836308,1094.8312124628944
1533222561.995,1021.4386787944653,770.6931442591704,736.0504839908205,1002.5090471792611,1113.7078031157237
1533222561.9989998,1086.397950908083,792.8699754645182,835.6265142654674,1034.5528865872952,881.7985594955934
1533222562.0029998,1104.3168009699325,798.4226997140906,857.8287750217759,1032.2606926916649,482.6950778930897
1533222562.0070002,1057.2809664373815,770.6931442591704,749.5071511878731,1011.6637602225453,633.7078031157236
1533222562.0110002,1014.7179631414674,776.2458685087429,664.7326280840985,1029.9731863091135,776.6297719584877
1533222562.015,1034.880110100461,837.2349931395278,688.2811067240358,1036.8403929698466,555.506362611317
1533222562.019,1086.397950908083,837.2349931395278,853.1190792937884,1029.9731863091135,1197.3049221069102
1533222562.022,1081.920532152229,770.6931442591704,924.4369352005104,1052.8623126738635,1224.2667464390088
1533222562.026,1052.7989601623106,798.4226997140906,779.1101655296177,1071.1717387604317,550.1106841245369
1533222562.03,1046.0782445093128,859.4118243448756,697.0280781931009,1087.1936584644488,900.6751501484226
1533222562.034,1057.2809664373815,809.5054376846075,695.681860309472,1080.326451803716,1132.584393768553
1533222562.0379999,1113.2808135200744,770.6931442591704,787.8571369986828,1059.7295193345963,892.5843937685528
1533222562.042,1169.280660602767,776.2458685087429,876.6675579337258,1080.326451803716,916.8511402075615
1533222562.046,1164.798654327696,776.2458685087429,721.2489768199482,1089.4811648470002,765.8439376855282
1533222562.05,1084.159241530156,792.8699754645182,627.0564401700078,1052.8623126738635,544.7205283383574
1533222562.054,1072.9565196020872,798.4226997140906,690.2997445945747,1029.9731863091135,873.7078031157236
1533222562.0579998,1167.0373637056232,787.3286064792597,762.2900204882066,1064.304532099699,1054.3829532641462
1533222562.062,1191.6769294204705,792.8699754645182,820.8250070945951,1082.6139581862672,911.460984421382
1533222562.065,1128.9563666847798,798.4226997140906,758.2541226569382,1071.1717387604317,1019.3248498515774
1533222562.069,1046.0782445093128,815.05816193418,665.4064259808175,1066.5920384822502,1032.8057620176266
1533222562.073,992.3171068045469,831.6822688899554,690.2997445945747,1048.282612395682,976.1815127597395
1533222562.0770001,1046.0782445093128,792.8699754645182,682.8989910091385,1050.5748062913121,728.0907563798697
1533222562.081,1119.9969416538552,792.8699754645182,826.2071228094925,1039.1278993523977,838.6496997031549
1533222562.085,1113.2808135200744,859.4118243448756,821.497427081505,1036.8403929698466,1043.5971189911868
1533222562.089,1034.880110100461,876.0472865649649,637.8206715998025,1023.1059796483808,871.0127252226339
1533222562.093,985.596391151549,837.2349931395278,643.2027873146999,977.3324144319599,943.8184872402605
1533222562.0970001,1050.5602507843837,831.6822688899554,744.7974554598856,1009.371566326915,943.8184872402605
1533222562.101,1144.6365073687025,792.8699754645182,850.4280214363397,1043.7075996305794,833.2595439169754
1533222562.1039999,1111.0375166229303,792.8699754645182,762.2900204882066,1029.9731863091135,919.5517408012519
1533222562.1079998,1007.9972474884696,842.7763621247863,604.1803815169803,1039.1278993523977,825.1687875371057
1533222562.1120002,1007.9972474884696,848.3177311100446,678.189295281151,1039.1278993523977,795.506362611317
1533222562.1160002,1079.677235255085,820.5995309194385,717.2117010788705,1039.1278993523977,1032.8057620176266
1533222562.12,1149.1185136437734,820.5995309194385,804.0048620531841,1055.1498190564148,978.8765906528292
1533222562.1239998,1175.9967887365478,881.5886555502234,873.9765000762771,1078.0389454211647,776.6297719584877
1533222562.1279998,1119.9969416538552,881.5886555502234,676.8444553073313,1075.7514390386134,749.6624249257887
1533222562.1320002,1077.438525877158,898.2241177703128,617.6370487140329,1068.8842323778806,593.2595439169754
1533222562.1360002,1122.240238550999,892.6713935207403,732.0145861595521,1082.6139581862672,604.0453781899349
1533222562.14,1207.3570701043934,914.8595799904022,858.5011950086857,1073.459245142983,684.9418965874313
1533222562.144,1243.1993577473097,998.0255358265348,801.9862241826452,1100.9280717859147,792.8057620176266
1533222562.147,1151.3572230217005,981.3900736064454,650.6049188099453,1096.348371507733,935.7277308603907
1533222562.151,1052.7989601623106,948.1191491662668,605.5265994006093,1052.8623126738635,873.7078031157236
1533222562.155,1057.2809664373815,909.3068557408296,655.9870345248426,1034.5528865872952,1075.9546218100652
1533222562.159,1146.8798042658466,920.4009489756605,804.0048620531841,1045.9951060131307,1075.9546218100652
1533222562.1629999,1205.118360726466,953.6718734158393,840.3362099934549,1059.7295193345963,873.7078031157236
1533222562.167,1191.6769294204705,964.7546113863561,672.1347595793438,1064.304532099699,1235.0581034125687
1533222562.171,1142.3977979907756,986.9314425917039,591.3975122166468,1094.0608651251816,1197.3049221069102
1533222562.175,1039.357528856315,914.8595799904022,620.3281065714815,1066.5920384822502,841.3503002968451
1533222562.179,1032.6368132033172,870.4945623153925,756.9079047733093,988.7746338577954,935.7277308603907
1533222562.1829998,1099.8393822140786,881.5886555502234,821.497427081505,1027.6856799265622,660.6751501484226
1533222562.187,1088.6366602860098,909.3068557408296,665.4064259808175,1089.4811648470002,501.57166854591895
1533222562.19,1079.677235255085,959.2132424010977,594.0885700740955,1066.5920384822502,617.5262903559841
1533222562.194,1128.9563666847798,942.5777801810083,634.457193755444,1043.7075996305794,582.4681869434153
1533222562.198,1202.8796513485395,909.3068557408296,748.1609333042442,1036.8403929698466,415.27947166164256
1533222562.2020001,1265.6002140842302,1042.3791982372304,827.5519627833122,1068.8842323778806,720.0
1533222562.206,1223.037210788316,1070.0973984278367,723.267614690487,1080.326451803716,941.1234093471708
1533222562.21,1124.4789479289261,1031.2964602667134,662.0415702266498,1050.5748062913121,1024.7205283383576
1533222562.214,1155.8392292967715,1086.732860647926,670.7885416957149,1045.9951060131307,1111.012725222634
1533222562.218,1223.037210788316,1108.9096918532737,662.7153681233689,1057.4373254389661,736.1815127597395
1533222562.2220001,1229.7579264413139,1036.837829251972,846.3907456952621,1068.8842323778806,773.9291713647974
1533222562.226,1187.1995106646166,1014.6609980466242,810.0593977549912,1066.5920384822502,919.5517408012519
1533222562.2289999,1099.8393822140786,948.1191491662668,606.1990193875191,1029.9731863091135,711.9092436201303
1533222562.2329998,1099.8393822140786,876.0472865649649,656.6594545117524,1007.0840599443637,698.428331454081
1533222562.2370002,1180.4787950116188,870.4945623153925,752.1982090453217,1004.7965535618124,641.7985594955934
1533222562.2410002,1229.7579264413139,914.8595799904022,854.4652971774174,1041.415405734949,720.0
1533222562.245,1220.798501410389,959.2132424010977,745.4698754467954,1073.459245142983,978.8765906528292
1533222562.2489998,1104.3168009699325,937.0364111957499,596.1072079446343,1039.1278993523977,854.8312124628943
1533222562.2529998,1016.9566725193944,903.7654867555711,637.1482516128926,1023.1059796483808,1057.078031157236
1533222562.2570002,1057.2809664373815,925.942317960919,766.3272962292842,1029.9731863091135,978.8765906528292
1533222562.2610002,1086.397950908083,892.6713935207403,882.7234715453422,1048.282612395682,746.967347032699
1533222562.265,1070.7178102241603,914.8595799904022,774.4004698016302,1089.4811648470002,960.0
1533222562.269,999.0378224575448,948.1191491662668,632.4385558849052,1075.7514390386134,957.3049221069102
1533222562.272,969.9208379868435,876.0472865649649,633.1109758718151,1041.415405734949,1124.493637388683
1533222562.276,1023.6773881723923,848.3177311100446,694.3370203356523,1048.282612395682,970.7858342729595
1533222562.28,1086.397950908083,853.8591000953031,838.3175721229161,1039.1278993523977,951.9092436201303
1533222562.284,1079.677235255085,881.5886555502234,791.8944127397604,1052.8623126738635,1081.3503002968453
1533222562.2879999,1007.9972474884696,842.7763621247863,635.8020337292637,1043.7075996305794,884.493637388683
1533222562.292,1019.1999694165384,892.6713935207403,631.0923380012762,1039.1278993523977,854.8312124628943
1533222562.296,1111.0375166229303,992.4841668412764,640.5117294572511,1078.0389454211647,784.7205283383574
1533222562.3,1171.5193699806941,948.1191491662668,726.6310925348455,1066.5920384822502,892.5843937685528
1533222562.304,1171.5193699806941,898.2241177703128,804.0048620531841,1059.7295193345963,1019.3248498515774
1533222562.3079998,1079.677235255085,848.3177311100446,674.1520195400734,1052.8623126738635,819.7731090503256
1533222562.312,1052.7989601623106,898.2241177703128,630.4199180143663,1039.1278993523977,698.428331454081
1533222562.315,1102.0780915920056,931.4836869461774,676.8444553073313,1020.8184732658294,701.1234093471708
1533222562.319,1144.6365073687025,870.4945623153925,786.5109191150539,1007.0840599443637,528.539015578618
1533222562.323,1175.9967887365478,881.5886555502234,808.0407598844524,1011.6637602225453,703.8184872402605
1533222562.3270001,1140.1590886128488,937.0364111957499,652.6221787706749,991.0621402403467,887.1887152817728
1533222562.331,1043.839535131386,881.5886555502234,612.2535550893263,968.1730138755968,960.0
1533222562.335,1016.9566725193944,826.1408999046969,629.7474980274565,968.1730138755968,1137.9745495547322
1533222562.339,1113.2808135200744,848.3177311100446,725.2862525610258,975.0402205363296,695.7277308603907
1533222562.343,1063.9970945711623,803.9640686993491,776.419107672169,984.1949335796138,558.2014405044066
1533222562.3470001,1005.7585381105426,798.4226997140906,671.4609616826248,986.487127475244,814.3829532641462
1533222562.351,996.7991130796179,815.05816193418,641.1855273539703,968.1730138755968,876.4028810088133
1533222562.3539999,990.07839742662,815.05816193418,621.6729465453012,947.5760814064771,938.428331454081
1533222562.3579998,1075.1998164992312,815.05816193418,679.53551316478,949.8635877890284,811.6823526704559
1533222562.3620002,1137.9203792349217,798.4226997140906,824.8609049258636,1002.5090471792611,493.4809121660492
1533222562.3660002,1090.879957183154,853.8591000953031,744.1250354729757,1018.5309668832781,466.5135651333502
1533222562.37,967.6775410896995,892.6713935207403,631.7661358979954,952.1510941715798,970.7858342729595
1533222562.3739998,990.07839742662,859.4118243448756,620.3281065714815,924.6869550417273,1221.571668545919
1533222562.3779998,1113.2808135200744,898.2241177703128,710.4847453901535,945.2885750239259,787.4156062314472
1533222562.3820002,1178.240085633692,925.942317960919,832.2616585112996,968.1730138755968,641.7985594955934
1533222562.3860002,1126.717657306853,903.7654867555711,679.53551316478,963.5980011104941,938.428331454081
1533222562.39,1030.39810382539,881.5886555502234,546.3191928073107,952.1510941715798,844.0453781899349
1533222562.394,1075.1998164992312,826.1408999046969,627.7288601569177,954.44328806721,946.5135651333502
1533222562.397,1144.6365073687025,848.3177311100446,764.9810783456552,956.7307944497613,1008.539015578618
1533222562.401,1167.0373637056232,925.942317960919,842.3548478639938,963.5980011104941,717.3049221069102
1533222562.405,1137.9203792349217,909.3068557408296,707.7923096228956,963.5980011104941,544.7205283383574
1533222562.409,1066.2403914683064,881.5886555502234,602.8355415431606,959.0183008323125,798.2014405044066
1533222562.4129999,1088.6366602860098,859.4118243448756,607.545237271148,959.0183008323125,782.0199277446671
1533222562.417,1133.4383729598508,898.2241177703128,647.2400630557775,961.3104947279429,687.636974480521
1533222562.421,1175.9967887365478,914.8595799904022,808.7145577811715,961.3104947279429,1173.032652967301
1533222562.425,1149.1185136437734,898.2241177703128,757.5803247602191,975.0402205363296,873.7078031157236
1533222562.429,1048.3169538872396,870.4945623153925,598.1258458151731,956.7307944497613,684.9418965874313
1533222562.4329998,1001.2765318354717,859.4118243448756,603.5079615300705,945.2885750239259,981.571668545919
1533222562.437,1046.0782445093128,881.5886555502234,620.3281065714815,945.2885750239259,906.0653059346021
1533222562.44,1117.758232275928,831.6822688899554,773.7280498147203,952.1510941715798,908.7659065282924
1533222562.444,1131.199663581924,859.4118243448756,787.1847170117729,975.0402205363296,738.8765906528292
1533222562.448,1066.2403914683064,898.2241177703128,630.4199180143663,970.465207771227,862.9219688427642
1533222562.4520001,1030.39810382539,864.953193330134,616.2908308304039,952.1510941715798,1189.2141657270406
1533222562.456,1093.1186665610808,920.4009489756605,644.5490051983288,945.2885750239259,1038.2014405044067
1533222562.46,1162.5599449497693,942.5777801810083,780.4563834132466,993.354334135977,895.2794716616426
1533222562.464,1202.8796513485395,931.4836869461774,779.7839634263368,1032.2606926916649,835.9546218100651
1533222562.468,1135.6770823377778,937.0364111957499,626.3826422732888,1004.7965535618124,1032.8057620176266
1533222562.4720001,1077.438525877158,870.4945623153925,549.6826706516694,991.0621402403467,1054.3829532641462
1533222562.476,1119.9969416538552,853.8591000953031,633.7847737685341,1002.5090471792611,892.5843937685528
1533222562.4789999,1189.4382200425437,920.4009489756605,793.9116727004899,997.9293469010795,941.1234093471708
1533222562.4829998,1214.0777857573912,970.2959803716145,740.0877597318981,1029.9731863091135,992.3575028188784
1533222562.4870002,1151.3572230217005,970.2959803716145,633.7847737685341,1032.2606926916649,997.7531813056585
1533222562.4910002,1077.438525877158,931.4836869461774,655.9870345248426,1007.0840599443637,1143.3702280415123
1533222562.495,1075.1998164992312,920.4009489756605,615.6184108434941,1009.371566326915,1097.526290355984
1533222562.4989998,1142.3977979907756,931.4836869461774,689.6273246076648,1009.371566326915,803.5971189911867
1533222562.5029998,1146.8798042658466,937.0364111957499,859.8474128923148,1007.0840599443637,773.9291713647974
1533222562.5070002,1077.438525877158,959.2132424010977,676.8444553073313,1002.5090471792611,798.2014405044066
1533222562.5110002,996.7991130796179,959.2132424010977,577.2684250326844,979.6199208145111,711.9092436201303
1533222562.515,1016.9566725193944,942.5777801810083,656.6594545117524,988.7746338577954,1081.3503002968453
1533222562.519,1133.4383729598508,920.4009489756605,752.8706290322316,1011.6637602225453,1262.019927744667
1533222562.522,1189.4382200425437,931.4836869461774,809.3869777680814,1036.8403929698466,941.1234093471708
1533222562.526,1133.4383729598508,920.4009489756605,674.1520195400734,1057.4373254389661,1032.8057620176266
1533222562.53,1066.2403914683064,887.1300245354818,551.0288885352983,1048.282612395682,1116.4028810088132
1533222562.534,1088.6366602860098,881.5886555502234,611.5811351024164,1050.5748062913121,862.9219688427642
1533222562.5379999,1137.9203792349217,887.1300245354818,732.0145861595521,1048.282612395682,639.097958901903
1533222562.542,1169.280660602767,948.1191491662668,866.575746490841,1055.1498190564148,903.3702280415123
1533222562.546,1108.7988072450034,914.8595799904022,736.0504839908205,1052.8623126738635,916.8511402075615
1533222562.55,1005.7585381105426,815.05816193418,596.1072079446343,1009.371566326915,873.7078031157236
1533222562.554,1016.9566725193944,864.953193330134,632.4385558849052,1004.7965535618124,986.967347032699
1533222562.5579998,1088.6366602860098,931.4836869461774,732.687006146462,1029.9731863091135,852.1361345698047
1533222562.561,1135.6770823377778,981.3900736064454,820.8250070945951,1011.6637602225453,765.8439376855282
1533222562.565,1122.240238550999,1014.6609980466242,711.8295853639733,984.1949335796138,1040.8965183974963
1533222562.569,1052.7989601623106,970.2959803716145,573.9035692785166,981.9074271970625,760.4482591987481
1533222562.573,1032.6368132033172,970.2959803716145,596.1072079446343,972.7527141537784,512.3575028188784
1533222562.5770001,1099.8393822140786,959.2132424010977,715.8668611050508,968.1730138755968,871.0127252226339
1533222562.581,1160.3166480526252,953.6718734158393,811.4056156386201,977.3324144319599,935.7277308603907
1533222562.585,1133.4383729598508,953.6718734158393,713.848223234512,979.6199208145111,798.2014405044066
1533222562.589,1072.9565196020872,925.942317960919,571.886309317787,975.0402205363296,652.5843937685528
1533222562.593,1012.4792537635406,887.1300245354818,610.9087151155065,977.3324144319599,350.55894332328506
1533222562.5970001,1034.880110100461,853.8591000953031,652.6221787706749,963.5980011104941,498.87659065282924
1533222562.601,1088.6366602860098,853.8591000953031,787.8571369986828,961.3104947279429,776.6297719584877
1533222562.6039999,1043.839535131386,870.4945623153925,785.1660791412341,984.1949335796138,674.1560623144718
1533222562.6079998,958.7181160587747,848.3177311100446,620.3281065714815,995.6418405185283,941.1234093471708
1533222562.6120002,936.3172597218542,803.9640686993491,589.378874346108,988.7746338577954,1048.987274777366
1533222562.6160002,1005.7585381105426,748.5163130538226,682.8989910091385,991.0621402403467,833.2595439169754
1533222562.62,1093.1186665610808,681.9858194377792,791.8944127397604,1018.5309668832781,968.0907563798697
1533222562.6239998,1113.2808135200744,709.7040196283855,676.8444553073313,1029.9731863091135,981.571668545919
1533222562.6279998,1048.3169538872396,726.3394818484749,590.7250922297369,1013.9512666050965,728.0907563798697
1533222562.6320002,1010.2405443856136,715.2453886136439,645.2214251852387,988.7746338577954,706.5135651333502
1533222562.6360002,1066.2403914683064,776.2458685087429,642.53036732779,970.465207771227,482.6950778930897
1533222562.64,1108.7988072450034,765.151775273912,776.419107672169,972.7527141537784,593.2595439169754
1533222562.644,1113.2808135200744,765.151775273912,795.257890584119,981.9074271970625,1129.8893158754631
1533222562.647,1061.7583851932354,792.8699754645182,614.2721929598652,965.8855074930455,1170.3375750742114
1533222562.651,1007.9972474884696,815.05816193418,581.9781207606718,945.2885750239259,976.1815127597395
1533222562.655,1055.0376695402376,842.7763621247863,607.545237271148,956.7307944497613,970.7858342729595
1533222562.659,1140.1590886128488,831.6822688899554,723.9400346773969,952.1510941715798,1048.987274777366
1533222562.6629999,1122.240238550999,837.2349931395278,833.6078763949287,970.465207771227,790.1106841245369
1533222562.667,1046.0782445093128,831.6822688899554,628.4012801438275,991.0621402403467,752.3575028188784
1533222562.671,1005.7585381105426,842.7763621247863,559.7758600043634,968.1730138755968,1016.6297719584877
1533222562.675,1007.9972474884696,848.3177311100446,614.2721929598652,979.6199208145111,1210.7858342729594
1533222562.679,1066.2403914683064,837.2349931395278,707.7923096228956,975.0402205363296,992.3575028188784
1533222562.6829998,1124.4789479289261,815.05816193418,856.4839350479562,972.7527141537784,1065.1687875371056
1533222562.686,1057.2809664373815,748.5163130538226,670.116121708805,991.0621402403467,1067.8638654301953
1533222562.69,954.2406973029208,742.9749440685641,557.0834242371054,979.6199208145111,868.3121246289436
1533222562.694,996.7991130796179,798.4226997140906,610.9087151155065,981.9074271970625,773.9291713647974
1533222562.698,1090.879957183154,848.3177311100446,707.7923096228956,997.9293469010795,792.8057620176266
1533222562.7020001,1128.9563666847798,892.6713935207403,761.6176005012967,1009.371566326915,795.506362611317
1533222562.706,1113.2808135200744,948.1191491662668,676.1706574106122,1018.5309668832781,598.6496997031549
1533222562.71,1034.880110100461,931.4836869461774,596.1072079446343,1004.7965535618124,849.4355339761144
1533222562.714,1019.1999694165384,864.953193330134,586.0153965017495,979.6199208145111,962.6950778930898
1533222562.718,1093.1186665610808,826.1408999046969,651.2773387968551,977.3324144319599,590.5589433232851
1533222562.7220001,1124.4789479289261,815.05816193418,774.4004698016302,1002.5090471792611,574.3829532641462
1533222562.726,1093.1186665610808,815.05816193418,719.2303389494094,1002.5090471792611,684.9418965874313
1533222562.7289999,1032.6368132033172,809.5054376846075,585.3415986050303,981.9074271970625,871.0127252226339
1533222562.7329998,992.3171068045469,726.3394818484749,600.8169036726217,965.8855074930455,924.9418965874313
1533222562.7370002,1043.839535131386,676.4444504525208,641.8579473408802,961.3104947279429,798.2014405044066
1533222562.7410002,1122.240238550999,693.0685574082961,788.5295569855926,968.1730138755968,833.2595439169754
1533222562.745,1106.5600978670764,654.256263982859,766.3272962292842,977.3324144319599,827.8638654301953
1533222562.7489998,1023.6773881723923,626.5380637922527,588.7064543591981,975.0402205363296,897.9745495547322
1533222562.7529998,981.1189723956952,648.7148949976005,585.3415986050303,965.8855074930455,854.8312124628943
1533222562.7570002,1019.1999694165384,626.5380637922527,695.0094403225621,961.3104947279429,652.5843937685528
1533222562.7610002,1090.879957183154,620.9966948069944,808.7145577811715,986.487127475244,466.5135651333502
1533222562.765,1099.8393822140786,626.5380637922527,712.5020053508831,1002.5090471792611,698.428331454081
1533222562.769,1039.357528856315,648.7148949976005,598.1258458151731,1000.2168532836308,846.7404560830246
1533222562.772,990.07839742662,659.8089882324315,635.1296137423539,959.0183008323125,652.5843937685528
1533222562.776,1046.0782445093128,665.3503572176899,629.0750780405466,936.1291744675627,655.2794716616426
1533222562.78,1117.758232275928,693.0685574082961,746.1422954337053,977.3324144319599,585.1687875371057
1533222562.784,1131.199663581924,715.2453886136439,812.07803562553,1002.5090471792611,423.3702280415123
1533222562.7879999,1055.0376695402376,698.6212816578686,627.0564401700078,984.1949335796138,806.2921968842764
1533222562.792,994.5604037016909,681.9858194377792,571.886309317787,977.3324144319599,927.636974480521
1533222562.796,1021.4386787944653,681.9858194377792,662.0415702266498,993.354334135977,857.5262903559841
1533222562.8,1122.240238550999,709.7040196283855,799.9675863121064,1004.7965535618124,1148.7659065282924
1533222562.804,1173.758079358621,748.5163130538226,744.1250354729757,1007.0840599443637,849.4355339761144
1533222562.8079998,1097.6006728361517,754.057682039081,588.7064543591981,1018.5309668832781,657.9745495547322
1533222562.811,1048.3169538872396,798.4226997140906,551.0288885352983,1020.8184732658294,838.6496997031549
1533222562.815,1079.677235255085,781.7872374940013,600.1431057759027,1032.2606926916649,746.967347032699
1533222562.819,1162.5599449497693,748.5163130538226,755.5616868896802,1039.1278993523977,938.428331454081
1533222562.823,1207.3570701043934,792.8699754645182,845.7183257083523,1036.8403929698466,997.7531813056585
1533222562.8270001,1108.7988072450034,748.5163130538226,654.6408166412136,1029.9731863091135,1170.3375750742114
1533222562.831,1034.880110100461,742.9749440685641,553.7199463927469,1007.0840599443637,1124.493637388683
1533222562.835,1093.1186665610808,765.151775273912,587.3602364755692,1002.5090471792611,849.4355339761144
1533222562.839,1160.3166480526252,759.6104062886535,726.6310925348455,1034.5528865872952,935.7277308603907
1533222562.843,1191.6769294204705,765.151775273912,775.0742676983493,1062.0170257171476,749.6624249257887
1533222562.8470001,1155.8392292967715,726.3394818484749,654.6408166412136,1039.1278993523977,919.5517408012519
1533222562.851,1104.3168009699325,731.8808508337332,570.5400914341581,1023.1059796483808,1329.4355339761144
1533222562.8539999,1119.9969416538552,726.3394818484749,555.0661642763758,1011.6637602225453,784.7205283383574
1533222562.8579998,1202.8796513485395,748.5163130538226,674.1520195400734,1011.6637602225453,498.87659065282924
1533222562.8620002,1207.3570701043934,792.8699754645182,785.838499128144,1013.9512666050965,773.9291713647974
1533222562.8660002,1119.9969416538552,731.8808508337332,699.7191360505497,995.6418405185283,1013.9346940653979
1533222562.87,1068.4791008462332,720.7981128632164,574.5773671752357,977.3324144319599,1054.3829532641462
1533222562.8739998,1075.1998164992312,731.8808508337332,589.378874346108,952.1510941715798,846.7404560830246
1533222562.8779998,1135.6770823377778,737.4335750833058,707.7923096228956,956.7307944497613,674.1560623144718
1533222562.8820002,1187.1995106646166,742.9749440685641,816.1153113666077,972.7527141537784,822.4737096440159
1533222562.8860002,1122.240238550999,731.8808508337332,665.4064259808175,981.9074271970625,968.0907563798697
1533222562.89,1028.1593944474632,748.5163130538226,566.5028156930804,979.6199208145111,1003.1433370918379
1533222562.894,1057.2809664373815,792.8699754645182,594.0885700740955,997.9293469010795,1051.6823526704559
1533222562.897,1115.5195228980012,809.5054376846075,653.2959766673939,1016.2387729876478,922.2468186943415
1533222562.901,1173.758079358621,792.8699754645182,781.1288034001565,1023.1059796483808,946.5135651333502
1533222562.905,1171.5193699806941,815.05816193418,666.0788459677274,1043.7075996305794,644.493637388683
1533222562.909,1077.438525877158,864.953193330134,594.7609900610054,1013.9512666050965,579.7731090503256
1533222562.9129999,1032.6368132033172,798.4226997140906,660.6967302528301,988.7746338577954,871.0127252226339
1533222562.917,1072.9565196020872,781.7872374940013,621.6729465453012,991.0621402403467,838.6496997031549
1533222562.921,1149.1185136437734,792.8699754645182,764.3086583587453,997.9293469010795,833.2595439169754
1533222562.925,1162.5599449497693,715.2453886136439,754.8892669027704,1032.2606926916649,957.3049221069102
1533222562.929,1046.0782445093128,742.9749440685641,540.2632791956944,1027.6856799265622,568.9872747773661
1533222562.9329998,1028.1593944474632,848.3177311100446,606.1990193875191,1016.2387729876478,372.13613456980465
1533222562.936,1128.9563666847798,848.3177311100446,712.5020053508831,1018.5309668832781,566.2921968842764
1533222562.94,1211.8390763794644,809.5054376846075,784.492281244515,1020.8184732658294,531.2340934717076
1533222562.944,1214.0777857573912,776.2458685087429,733.3594261333718,1020.8184732658294,663.3702280415123
1533222562.948,1124.4789479289261,815.05816193418,585.3415986050303,1011.6637602225453,825.1687875371057
1533222562.9520001,1079.677235255085,898.2241177703128,559.7758600043634,1002.5090471792611,849.4355339761144
1533222562.956,1153.6005199188444,892.6713935207403,617.6370487140329,1011.6637602225453,897.9745495547322
1533222562.96,1198.3976450734683,859.4118243448756,769.6907740736427,1004.7965535618124,849.4355339761144
1533222562.964,1160.3166480526252,831.6822688899554,828.2257606800313,1002.5090471792611,657.9745495547322
1533222562.968,1057.2809664373815,776.2458685087429,647.2400630557775,968.1730138755968,989.6624249257887
1533222562.9720001,987.8396880486931,770.6931442591704,561.1206999781831,913.2447356158918,1000.4482591987481
1533222562.976,1034.880110100461,792.8699754645182,627.0564401700078,942.9963811282955,447.63697448052096
1533222562.9789999,1097.6006728361517,787.3286064792597,782.4750212837854,977.3324144319599,841.3503002968451
1533222562.9829998,1090.879957183154,792.8699754645182,750.179571174783,979.6199208145111,876.4028810088133
1533222562.9870002,1001.2765318354717,842.7763621247863,645.8952230819577,991.0621402403467,488.09075637986973
1533222562.9910002,909.4389846290798,842.7763621247863,619.6556865845716,979.6199208145111,881.7985594955934
1533222562.995,934.0785503439272,798.4226997140906,602.1617436464414,986.487127475244,919.5517408012519
1533222562.9989998,1059.5196758153086,759.6104062886535,712.5020053508831,1007.0840599443637,876.4028810088133
1533222563.0029998,1113.2808135200744,781.7872374940013,819.4787892109662,1011.6637602225453,1245.8439376855283
1533222563.0070002,990.07839742662,781.7872374940013,666.0788459677274,1007.0840599443637,1059.7731090503255
1533222563.0110002,895.997553323084,754.057682039081,565.1579757192607,991.0621402403467,604.0453781899349
1533222563.015,940.7992659969251,781.7872374940013,591.3975122166468,1002.5090471792611,612.1361345698047
1533222563.019,996.7991130796179,820.5995309194385,715.8668611050508,1002.5090471792611,986.967347032699
1533222563.022,1014.7179631414674,792.8699754645182,802.658644169555,977.3324144319599,976.1815127597395
1533222563.026,985.596391151549,748.5163130538226,654.6408166412136,979.6199208145111,992.3575028188784
1533222563.03,902.718268976082,715.2453886136439,576.5960050457745,968.1730138755968,1054.3829532641462
1533222563.034,916.1597002820777,726.3394818484749,574.5773671752357,956.7307944497613,776.6297719584877
1533222563.0379999,1014.7179631414674,776.2458685087429,681.5527731255096,954.44328806721,593.2595439169754
1533222563.042,1072.9565196020872,792.8699754645182,847.0645435919812,965.8855074930455,946.5135651333502
1533222563.046,1037.1188194783879,748.5163130538226,648.5862809394064,1000.2168532836308,924.9418965874313
1533222563.05,963.2001223338456,726.3394818484749,564.4855557323509,986.487127475244,547.4156062314472
1533222563.054,994.5604037016909,748.5163130538226,655.3132366281235,977.3324144319599,725.3901557861794
1533222563.0579998,1068.4791008462332,759.6104062886535,653.9683966543038,995.6418405185283,765.8439376855282
1533222563.061,1115.5195228980012,776.2458685087429,810.7318177419011,1011.6637602225453,682.2468186943415
1533222563.065,1099.8393822140786,742.9749440685641,783.8198612576051,1025.393486030932,916.8511402075615
1533222563.069,1019.1999694165384,720.7981128632164,579.2870629032232,1007.0840599443637,989.6624249257887
1533222563.073,1010.2405443856136,776.2458685087429,601.4893236595316,986.487127475244,1000.4482591987481
1533222563.0770001,1079.677235255085,831.6822688899554,761.6176005012967,1011.6637602225453,989.6624249257887
1533222563.081,1097.6006728361517,820.5995309194385,828.2257606800313,1027.6856799265622,701.1234093471708
1533222563.085,1046.0782445093128,798.4226997140906,724.6124546643067,1007.0840599443637,749.6624249257887
1533222563.089,1019.1999694165384,842.7763621247863,549.6826706516694,1002.5090471792611,544.7205283383574
1533222563.093,992.3171068045469,870.4945623153925,536.8998013513358,988.7746338577954,372.13613456980465
1533222563.0970001,1007.9972474884696,837.2349931395278,724.6124546643067,979.6199208145111,806.2921968842764
1533222563.101,1077.438525877158,787.3286064792597,848.4093835658009,993.354334135977,833.2595439169754
1533222563.1039999,1066.2403914683064,759.6104062886535,763.6362383718355,1004.7965535618124,1089.4355339761144
1533222563.1079998,1010.2405443856136,792.8699754645182,588.7064543591981,1002.5090471792611,968.0907563798697
1533222563.1120002,983.3576817736222,803.9640686993491,579.959482890133,988.7746338577954,628.3121246289436
1533222563.1160002,1010.2405443856136,787.3286064792597,682.8989910091385,986.487127475244,957.3049221069102
1533222563.12,1111.0375166229303,787.3286064792597,791.2206148430413,1007.0840599443637,1067.8638654301953
1533222563.1239998,1122.240238550999,781.7872374940013,747.4885133173343,1011.6637602225453,617.5262903559841
1533222563.1279998,983.3576817736222,754.057682039081,592.7423521904665,984.1949335796138,423.3702280415123
1533222563.1320002,938.5605566189981,693.0685574082961,599.4706857889928,952.1510941715798,604.0453781899349
1533222563.1360002,1037.1188194783879,715.2453886136439,599.4706857889928,949.8635877890284,722.6950778930898
1533222563.14,1090.879957183154,742.9749440685641,686.9362667502161,947.5760814064771,458.42833145408105
1533222563.144,1090.879957183154,704.162650643127,830.9168185374799,949.8635877890284,539.3248498515774
1533222563.147,1061.7583851932354,737.4335750833058,663.3877881102787,961.3104947279429,690.3375750742113
1533222563.151,1007.9972474884696,776.2458685087429,590.7250922297369,945.2885750239259,571.6823526704559
1533222563.155,1057.2809664373815,815.05816193418,632.4385558849052,945.2885750239259,814.3829532641462
1533222563.159,1144.6365073687025,853.8591000953031,734.7056440170007,977.3324144319599,1035.506362611317
1533222563.1629999,1149.1185136437734,837.2349931395278,824.8609049258636,1009.371566326915,844.0453781899349
1533222563.167,1102.0780915920056,859.4118243448756,658.0056723953813,997.9293469010795,1102.921968842764
1533222563.171,1025.9206850695361,864.953193330134,556.4110042501956,952.1510941715798,1065.1687875371056
1533222563.175,1007.9972474884696,848.3177311100446,583.9967586312107,942.9963811282955,865.6170467358538
1533222563.179,1043.839535131386,870.4945623153925,707.7923096228956,954.44328806721,671.460984421382
1533222563.1829998,1072.9565196020872,876.0472865649649,783.8198612576051,956.7307944497613,757.7531813056585
1533222563.186,1048.3169538872396,815.05816193418,618.3094687009427,981.9074271970625,1065.1687875371056
1533222563.19,985.596391151549,792.8699754645182,606.871439374429,1023.1059796483808,954.6043215132199
1533222563.194,992.3171068045469,1003.5669048117933,641.1855273539703,961.3104947279429,919.5517408012519
1533222563.198,1028.1593944474632,1031.2964602667134,636.4758316259828,867.466482886392,887.1887152817728
1533222563.2020001,1046.0782445093128,931.4836869461774,813.424253509159,913.2447356158918,657.9745495547322
1533222563.206,1052.7989601623106,986.9314425917039,732.687006146462,961.3104947279429,779.3248498515774
1533222563.21,1007.9972474884696,959.2132424010977,563.8117578356317,959.0183008323125,827.8638654301953
1533222563.214,992.3171068045469,837.2349931395278,613.5997729729553,968.1730138755968,819.7731090503256
1533222563.218,1090.879957183154,770.6931442591704,705.1012517654469,975.0402205363296,879.097958901903
1533222563.2220001,1137.9203792349217,731.8808508337332,774.4004698016302,986.487127475244,881.7985594955934
1533222563.226,1128.9563666847798,748.5163130538226,677.5168752942411,1000.2168532836308,876.4028810088133
1533222563.2289999,1084.159241530156,748.5163130538226,581.9781207606718,1000.2168532836308,1035.506362611317
1533222563.2329998,1037.1188194783879,759.6104062886535,559.7758600043634,997.9293469010795,1113.7078031157237
1533222563.2370002,1081.920532152229,770.6931442591704,629.7474980274565,968.1730138755968,941.1234093471708
1533222563.2410002,1140.1590886128488,726.3394818484749,768.345934099823,975.0402205363296,938.428331454081
1533222563.245,1140.1590886128488,765.151775273912,728.6497304053844,1032.2606926916649,720.0
1533222563.2489998,1039.357528856315,776.2458685087429,586.6878164886593,1023.1059796483808,970.7858342729595
1533222563.2529998,1005.7585381105426,765.151775273912,577.2684250326844,1004.7965535618124,1200.0
1533222563.2570002,1072.9565196020872,754.057682039081,670.116121708805,1013.9512666050965,879.097958901903
1533222563.2610002,1108.7988072450034,726.3394818484749,779.1101655296177,991.0621402403467,873.7078031157236
1533222563.265,1108.7988072450034,776.2458685087429,670.116121708805,1013.9512666050965,806.2921968842764
1533222563.268,1048.3169538872396,820.5995309194385,581.9781207606718,1034.5528865872952,949.2141657270405
1533222563.272,1010.2405443856136,770.6931442591704,588.7064543591981,1007.0840599443637,1003.1433370918379
1533222563.276,1043.839535131386,781.7872374940013,655.9870345248426,1009.371566326915,830.5589433232851
1533222563.28,1126.717657306853,787.3286064792597,781.1288034001565,1043.7075996305794,1102.921968842764
1533222563.284,1164.798654327696,765.151775273912,701.7377739210884,1064.304532099699,1073.2595439169754
1533222563.2879999,1081.920532152229,781.7872374940013,592.0699322035566,1071.1717387604317,795.506362611317
1533222563.292,1010.2405443856136,765.151775273912,641.1855273539703,1068.8842323778806,738.8765906528292
1533222563.296,1021.4386787944653,770.6931442591704,604.8528015038902,1071.1717387604317,782.0199277446671
1533222563.3,1106.5600978670764,809.5054376846075,720.5765568330384,1071.1717387604317,760.4482591987481
1533222563.304,1160.3166480526252,809.5054376846075,843.0272678509036,1091.7733587426303,808.9872747773661
1533222563.3079998,1108.7988072450034,842.7763621247863,615.6184108434941,1059.7295193345963,838.6496997031549
1533222563.311,1046.0782445093128,864.953193330134,549.0102506647595,1041.415405734949,736.1815127597395
1533222563.315,1072.9565196020872,903.7654867555711,616.9632508173138,1041.415405734949,871.0127252226339
1533222563.319,1155.8392292967715,931.4836869461774,729.3221503922942,1009.371566326915,792.8057620176266
1533222563.323,1151.3572230217005,887.1300245354818,752.8706290322316,1011.6637602225453,806.2921968842764
1533222563.3270001,1048.3169538872396,898.2241177703128,599.4706857889928,1004.7965535618124,852.1361345698047
1533222563.331,965.4388317117725,931.4836869461774,573.9035692785166,1002.5090471792611,714.6043215132199
1533222563.335,992.3171068045469,959.2132424010977,615.6184108434941,1004.7965535618124,695.7277308603907
1533222563.339,1095.3573759390076,920.4009489756605,700.3915560374595,1011.6637602225453,706.5135651333502
1533222563.343,1133.4383729598508,887.1300245354818,788.5295569855926,1013.9512666050965,787.4156062314472
1533222563.3470001,1059.5196758153086,909.3068557408296,622.3467444420204,1020.8184732658294,922.2468186943415
1533222563.351,963.2001223338456,876.0472865649649,523.4431341542833,1007.0840599443637,469.2141657270405
1533222563.3539999,963.2001223338456,859.4118243448756,567.1766135897996,979.6199208145111,490.7858342729595
1533222563.3579998,1066.2403914683064,848.3177311100446,662.0415702266498,984.1949335796138,736.1815127597395
1533222563.3620002,1122.240238550999,831.6822688899554,808.7145577811715,991.0621402403467,612.1361345698047
1533222563.3660002,1063.9970945711623,831.6822688899554,666.7512659546372,984.1949335796138,671.460984421382
1533222563.37,987.8396880486931,820.5995309194385,517.388598452476,963.5980011104941,693.032652967301
1533222563.3739998,1012.4792537635406,815.05816193418,530.8438877397194,940.7088747457443,755.0525807119682
1533222563.3779998,1102.0780915920056,798.4226997140906,627.7288601569177,949.8635877890284,755.0525807119682
1533222563.3820002,1146.8798042658466,826.1408999046969,789.8757748692216,1000.2168532836308,568.9872747773661
1533222563.3860002,1113.2808135200744,842.7763621247863,727.3048904315647,1029.9731863091135,741.571668545919
1533222563.39,1095.3573759390076,792.8699754645182,547.6654106909398,1036.8403929698466,844.0453781899349
1533222563.393,1113.2808135200744,803.9640686993491,545.6467728204009,1041.415405734949,550.1106841245369
1533222563.397,1169.280660602767,815.05816193418,672.8071795662537,1027.6856799265622,876.4028810088133
1533222563.401,1245.4380671252366,803.9640686993491,757.5803247602191,1029.9731863091135,728.0907563798697
1533222563.405,1231.9966358192407,803.9640686993491,663.3877881102787,1041.415405734949,655.2794716616426
1533222563.409,1135.6770823377778,748.5163130538226,523.4431341542833,1011.6637602225453,641.7985594955934
1533222563.4129999,1081.920532152229,709.7040196283855,554.3923663796568,995.6418405185283,536.6297719584877
1533222563.417,1126.717657306853,726.3394818484749,682.8989910091385,1000.2168532836308,1003.1433370918379
1533222563.421,1207.3570701043934,759.6104062886535,744.7974554598856,1027.6856799265622,1383.3702280415123
1533222563.425,1187.1995106646166,754.057682039081,666.7512659546372,1029.9731863091135,1086.7404560830246
1533222563.429,1086.397950908083,759.6104062886535,588.032656462479,1018.5309668832781,892.5843937685528
1533222563.4329998,1048.3169538872396,748.5163130538226,549.6826706516694,1027.6856799265622,976.1815127597395
1533222563.436,1128.9563666847798,742.9749440685641,530.8438877397194,1016.2387729876478,609.4355339761144
1533222563.44,1207.3570701043934,759.6104062886535,726.6310925348455,1004.7965535618124,485.39015578617943
1533222563.444,1182.7175043895459,715.2453886136439,781.8012233870663,1011.6637602225453,498.87659065282924
1533222563.448,1119.9969416538552,659.8089882324315,581.9781207606718,1016.2387729876478,690.3375750742113
1533222563.4520001,1113.2808135200744,709.7040196283855,536.8998013513358,1002.5090471792611,1027.415606231447
1533222563.456,1184.9608012866897,742.9749440685641,586.6878164886593,1013.9512666050965,722.6950778930898
1533222563.46,1231.9966358192407,726.3394818484749,746.1422954337053,1009.371566326915,525.8439376855282
1533222563.464,1216.316495135318,731.8808508337332,721.9213968068581,1018.5309668832781,795.506362611317
1533222563.468,1140.1590886128488,726.3394818484749,534.2087434938871,1082.6139581862672,746.967347032699
1533222563.4720001,1063.9970945711623,770.6931442591704,560.4482799912732,1057.4373254389661,811.6823526704559
1533222563.476,1079.677235255085,798.4226997140906,605.5265994006093,1039.1278993523977,900.6751501484226
1533222563.4789999,1149.1185136437734,737.4335750833058,709.8109474934345,1036.8403929698466,760.4482591987481
1533222563.4829998,1198.3976450734683,693.0685574082961,770.3645719703618,1016.2387729876478,887.1887152817728
1533222563.4870002,1135.6770823377778,681.9858194377792,626.3826422732888,1034.5528865872952,1259.3248498515775
1533222563.4910002,1010.2405443856136,615.4439705574218,526.1341920117319,1036.8403929698466,1423.8184872402605
1533222563.495,987.8396880486931,615.4439705574218,528.8266277789899,1025.393486030932,1065.1687875371056
1533222563.4989998,1086.397950908083,715.2453886136439,717.8854989755897,1073.459245142983,935.7277308603907
1533222563.5029998,1113.2808135200744,709.7040196283855,759.5989626307579,1087.1936584644488,784.7205283383574
1533222563.5070002,1043.839535131386,693.0685574082961,623.6915844158401,1043.7075996305794,827.8638654301953
1533222563.5110002,1001.2765318354717,781.7872374940013,534.2087434938871,997.9293469010795,1137.9745495547322
1533222563.515,1019.1999694165384,815.05816193418,520.7520762968346,991.0621402403467,960.0
1533222563.518,1079.677235255085,803.9640686993491,713.848223234512,1036.8403929698466,817.0780311572358
1533222563.522,1162.5599449497693,787.3286064792597,806.6959199106327,1055.1498190564148,709.2141657270405
1533222563.526,1106.5600978670764,831.6822688899554,627.7288601569177,1032.2606926916649,962.6950778930898
1533222563.53,956.4794066808478,864.953193330134,502.58709128160376,995.6418405185283,773.9291713647974
1533222563.534,945.2766847527789,853.8591000953031,527.4804098953608,981.9074271970625,442.2468186943415
1533222563.5379999,1037.1188194783879,809.5054376846075,680.2079331516899,1013.9512666050965,544.7205283383574
1533222563.542,1088.6366602860098,798.4226997140906,825.5347028225826,1027.6856799265622,960.0
1533222563.546,1046.0782445093128,842.7763621247863,595.4334100479151,1000.2168532836308,962.6950778930898
1533222563.55,958.7181160587747,831.6822688899554,505.95056912596226,954.44328806721,776.6297719584877
1533222563.554,956.4794066808478,831.6822688899554,596.7796279315442,947.5760814064771,838.6496997031549
1533222563.5579998,1039.357528856315,848.3177311100446,595.4334100479151,972.7527141537784,938.428331454081
1533222563.561,1119.9969416538552,853.8591000953031,718.5579189624996,968.1730138755968,1189.2141657270406
1533222563.565,1093.1186665610808,864.953193330134,709.1385275065246,965.8855074930455,1151.4609844213821
1533222563.569,967.6775410896995,848.3177311100446,570.5400914341581,977.3324144319599,970.7858342729595
1533222563.573,931.8398409660003,848.3177311100446,551.0288885352983,963.5980011104941,970.7858342729595
1533222563.5770001,1007.9972474884696,853.8591000953031,656.6594545117524,981.9074271970625,954.6043215132199
1533222563.581,1108.7988072450034,903.7654867555711,760.9451805143868,991.0621402403467,625.6170467358538
1533222563.585,1099.8393822140786,914.8595799904022,682.2265710222287,993.354334135977,628.3121246289436
1533222563.589,1014.7179631414674,859.4118243448756,547.6654106909398,995.6418405185283,803.5971189911867
1533222563.593,983.3576817736222,881.5886555502234,561.1206999781831,972.7527141537784,978.8765906528292
1533222563.5970001,1034.880110100461,925.942317960919,569.1938735505291,981.9074271970625,1073.2595439169754
1533222563.601,1097.6006728361517,898.2241177703128,713.1758032476022,1011.6637602225453,1000.4482591987481
1533222563.6039999,1097.6006728361517,870.4945623153925,736.7242818875396,1018.5309668832781,914.1560623144718
1533222563.6079998,1014.7179631414674,848.3177311100446,558.4296421207345,995.6418405185283,771.2340934717076
1533222563.6120002,920.6371190379315,837.2349931395278,563.8117578356317,1007.0840599443637,1035.506362611317
1533222563.6160002,969.9208379868435,809.5054376846075,629.7474980274565,991.0621402403467,1159.5517408012518
1533222563.62,1102.0780915920056,803.9640686993491,775.0742676983493,986.487127475244,1305.1687875371056
1533222563.6239998,1135.6770823377778,870.4945623153925,705.775049662166,1009.371566326915,854.8312124628943
1533222563.6279998,1052.7989601623106,876.0472865649649,576.5960050457745,981.9074271970625,679.5517408012519
1533222563.6320002,951.9974004057768,809.5054376846075,547.6654106909398,984.1949335796138,1059.7731090503255
1533222563.6360002,1001.2765318354717,809.5054376846075,533.5363235069773,1000.2168532836308,639.097958901903
1533222563.64,1115.5195228980012,842.7763621247863,705.775049662166,986.487127475244,523.1433370918379
1533222563.643,1167.0373637056232,820.5995309194385,750.8519911616928,997.9293469010795,833.2595439169754
1533222563.647,1122.240238550999,798.4226997140906,555.0661642763758,986.487127475244,746.967347032699
1533222563.651,1001.2765318354717,831.6822688899554,513.3513227113984,949.8635877890284,649.8893158754631
1533222563.655,1003.5198287326157,820.5995309194385,559.7758600043634,965.8855074930455,941.1234093471708
1533222563.659,1106.5600978670764,792.8699754645182,621.0005265583914,968.1730138755968,1008.539015578618
1533222563.6629999,1115.5195228980012,820.5995309194385,776.419107672169,961.3104947279429,1032.8057620176266
1533222563.667,1048.3169538872396,803.9640686993491,654.6408166412136,991.0621402403467,852.1361345698047
1533222563.671,1025.9206850695361,842.7763621247863,523.4431341542833,984.1949335796138,690.3375750742113
1533222563.675,1050.5602507843837,864.953193330134,557.0834242371054,977.3324144319599,1051.6823526704559
1533222563.679,1099.8393822140786,781.7872374940013,651.949758783765,970.465207771227,903.3702280415123
1533222563.6829998,1180.4787950116188,759.6104062886535,737.3967018744495,1002.5090471792611,639.097958901903
1533222563.686,1133.4383729598508,803.9640686993491,601.4893236595316,1032.2606926916649,525.8439376855282
1533222563.69,1030.39810382539,803.9640686993491,530.8438877397194,1009.371566326915,795.506362611317
1533222563.694,1030.39810382539,765.151775273912,520.0796563099248,968.1730138755968,757.7531813056585
1533222563.698,1122.240238550999,781.7872374940013,655.9870345248426,981.9074271970625,830.5589433232851
1533222563.7020001,1178.240085633692,770.6931442591704,730.6683682759232,1036.8403929698466,1073.2595439169754
1533222563.706,1135.6770823377778,742.9749440685641,616.9632508173138,1036.8403929698466,1005.8439376855282
1533222563.71,1063.9970945711623,748.5163130538226,567.1766135897996,1023.1059796483808,1218.8765906528292
1533222563.714,1057.2809664373815,770.6931442591704,571.886309317787,1011.6637602225453,1032.8057620176266
1533222563.718,1115.5195228980012,787.3286064792597,592.0699322035566,1009.371566326915,981.571668545919
1533222563.7220001,1160.3166480526252,798.4226997140906,730.6683682759232,1009.371566326915,860.2213682490737
1533222563.726,1102.0780915920056,742.9749440685641,701.0653539341786,988.7746338577954,714.6043215132199
1533222563.7289999,1028.1593944474632,748.5163130538226,537.5722213382456,1011.6637602225453,738.8765906528292
1533222563.7329998,1025.9206850695361,848.3177311100446,557.0834242371054,1029.9731863091135,833.2595439169754
1533222563.7370002,1104.3168009699325,842.7763621247863,678.189295281151,1029.9731863091135,1027.415606231447
1533222563.7410002,1196.1589356955415,781.7872374940013,764.9810783456552,1064.304532099699,736.1815127597395
1533222563.745,1111.0375166229303,792.8699754645182,668.0974838382662,1066.5920384822502,571.6823526704559
1533222563.7489998,999.0378224575448,803.9640686993491,513.3513227113984,1039.1278993523977,657.9745495547322
1533222563.7529998,981.1189723956952,754.057682039081,584.6691786181206,1025.393486030932,595.9546218100651
1533222563.7570002,1016.9566725193944,715.2453886136439,629.7474980274565,1034.5528865872952,728.0907563798697
1533222563.7610002,1070.7178102241603,748.5163130538226,721.2489768199482,1039.1278993523977,676.8511402075615
1533222563.765,1086.397950908083,815.05816193418,786.5109191150539,1020.8184732658294,531.2340934717076
1533222563.768,1034.880110100461,781.7872374940013,592.7423521904665,1025.393486030932,763.1433370918379
1533222563.772,1007.9972474884696,765.151775273912,487.7842062009222,1039.1278993523977,776.6297719584877
1533222563.776,1034.880110100461,742.9749440685641,618.3094687009427,1036.8403929698466,960.0
1533222563.78,1097.6006728361517,704.162650643127,775.0742676983493,1007.0840599443637,906.0653059346021
1533222563.784,1113.2808135200744,693.0685574082961,691.6459624782036,1011.6637602225453,590.5589433232851
1533222563.7879999,1030.39810382539,704.162650643127,573.2311492916067,1034.5528865872952,827.8638654301953
1533222563.792,974.3982567426973,765.151775273912,527.4804098953608,1002.5090471792611,914.1560623144718
1533222563.796,1010.2405443856136,765.151775273912,542.2819170662332,1002.5090471792611,914.1560623144718
1533222563.8,1093.1186665610808,693.0685574082961,713.848223234512,988.7746338577954,984.2667464390087
1533222563.804,1135.6770823377778,742.9749440685641,791.8944127397604,991.0621402403467,795.506362611317
1533222563.8079998,1077.438525877158,698.6212816578686,590.7250922297369,1009.371566326915,965.3901557861794
1533222563.811,999.0378224575448,620.9966948069944,524.1169320510023,977.3324144319599,933.032652967301
1533222563.815,1019.1999694165384,659.8089882324315,557.0834242371054,975.0402205363296,582.4681869434153
1533222563.819,1063.9970945711623,665.3503572176899,704.4288317785371,1007.0840599443637,746.967347032699
1533222563.823,1095.3573759390076,698.6212816578686,758.926542643848,1032.2606926916649,1003.1433370918379
1533222563.8270001,1093.1186665610808,731.8808508337332,581.9781207606718,1032.2606926916649,968.0907563798697
1533222563.831,1050.5602507843837,726.3394818484749,521.4258741935537,1013.9512666050965,943.8184872402605
1533222563.835,1032.6368132033172,742.9749440685641,600.8169036726217,1002.5090471792611,1030.1106841245369
1533222563.839,1086.397950908083,731.8808508337332,686.262468853497,1009.371566326915,1113.7078031157237
1533222563.843,1119.9969416538552,770.6931442591704,697.7004981800108,1039.1278993523977,768.539015578618
1533222563.8470001,1048.3169538872396,826.1408999046969,618.3094687009427,1011.6637602225453,539.3248498515774
1533222563.85,1041.6008257534588,870.4945623153925,581.3057007737619,1023.1059796483808,655.2794716616426
1533222563.8539999,1048.3169538872396,837.2349931395278,560.4482799912732,1029.9731863091135,897.9745495547322
1533222563.8579998,1046.0782445093128,770.6931442591704,607.545237271148,993.354334135977,763.1433370918379
1533222563.8620002,1124.4789479289261,781.7872374940013,785.1660791412341,1020.8184732658294,728.0907563798697
1533222563.8660002,1111.0375166229303,815.05816193418,678.189295281151,1064.304532099699,978.8765906528292
1533222563.87,976.6369661206243,803.9640686993491,522.0982941804635,1045.9951060131307,943.8184872402605
1533222563.8739998,983.3576817736222,809.5054376846075,543.6281349498621,995.6418405185283,776.6297719584877
1533222563.8779998,1095.3573759390076,842.7763621247863,671.4609616826248,1009.371566326915,927.636974480521
1533222563.8820002,1160.3166480526252,809.5054376846075,760.2713826176678,1020.8184732658294,795.506362611317
1533222563.8860002,1142.3977979907756,826.1408999046969,598.7982658020829,1016.2387729876478,512.3575028188784
1533222563.89,1037.1188194783879,815.05816193418,519.4072363230149,988.7746338577954,935.7277308603907
1533222563.893,1025.9206850695361,792.8699754645182,566.5028156930804,968.1730138755968,827.8638654301953
1533222563.897,1180.4787950116188,864.953193330134,639.8393094703413,1013.9512666050965,582.4681869434153
1533222563.901,1231.9966358192407,975.848704621187,795.257890584119,1036.8403929698466,970.7858342729595
1533222563.905,1193.9202263176146,1025.7437360171411,750.8519911616928,1048.282612395682,827.8638654301953
1533222563.909,1131.199663581924,925.942317960919,596.7796279315442,1096.348371507733,849.4355339761144
1533222563.9129999,1075.1998164992312,859.4118243448756,549.6826706516694,1080.326451803716,838.6496997031549
1533222563.917,1081.920532152229,948.1191491662668,662.7153681233689,1007.0840599443637,679.5517408012519
1533222563.921,1108.7988072450034,1009.1082737970517,804.6772820400939,979.6199208145111,817.0780311572358
1533222563.925,1104.3168009699325,887.1300245354818,693.6646003487424,979.6199208145111,701.1234093471708
1533222563.929,1003.5198287326157,831.6822688899554,585.3415986050303,936.1291744675627,827.8638654301953
1533222563.9329998,934.0785503439272,892.6713935207403,544.9729749236818,922.399448659176,838.6496997031549
1533222563.936,972.1595473647704,909.3068557408296,609.5624972318776,908.6650353377102,1032.8057620176266
1533222563.94,1034.880110100461,848.3177311100446,753.5444269289507,901.7978286769774,1243.143337091838
1533222563.944,1052.7989601623106,859.4118243448756,729.9959482890133,945.2885750239259,924.9418965874313
1533222563.948,974.3982567426973,903.7654867555711,600.1431057759027,963.5980011104941,873.7078031157236
1533222563.9520001,960.9568254367016,887.1300245354818,578.6132650065041,965.8855074930455,857.5262903559841
1533222563.956,1039.357528856315,842.7763621247863,576.5960050457745,959.0183008323125,1170.3375750742114
1533222563.96,1115.5195228980012,798.4226997140906,680.8803531385997,981.9074271970625,992.3575028188784
1533222563.964,1142.3977979907756,820.5995309194385,792.5668327266702,993.354334135977,706.5135651333502
1533222563.968,1046.0782445093128,842.7763621247863,612.9273529860454,988.7746338577954,782.0199277446671
1533222563.9720001,1001.2765318354717,903.7654867555711,550.3564685483884,991.0621402403467,765.8439376855282
1533222563.975,1061.7583851932354,909.3068557408296,617.6370487140329,991.0621402403467,962.6950778930898
1533222563.9789999,1106.5600978670764,859.4118243448756,718.5579189624996,981.9074271970625,1070.5589433232851
1533222563.9829998,1115.5195228980012,831.6822688899554,697.7004981800108,995.6418405185283,922.2468186943415
1533222563.9870002,1077.438525877158,853.8591000953031,641.1855273539703,1013.9512666050965,1162.2468186943415
1533222563.9910002,1046.0782445093128,914.8595799904022,598.7982658020829,1013.9512666050965,1191.9092436201302
1533222563.995,1052.7989601623106,903.7654867555711,532.8625256102582,988.7746338577954,803.5971189911867
1533222563.9989998,1102.0780915920056,870.4945623153925,658.0056723953813,993.354334135977,941.1234093471708
1533222564.0029998,1135.6770823377778,892.6713935207403,818.8063692240563,1007.0840599443637,906.0653059346021
1533222564.0070002,1066.2403914683064,909.3068557408296,649.2587009263162,965.8855074930455,733.4809121660492
1533222564.0110002,969.9208379868435,864.953193330134,541.6094970793233,947.5760814064771,865.6170467358538
1533222564.015,999.0378224575448,876.0472865649649,550.3564685483884,988.7746338577954,862.9219688427642
1533222564.018,1079.677235255085,892.6713935207403,665.4064259808175,993.354334135977,609.4355339761144
1533222564.022,1137.9203792349217,898.2241177703128,775.7466876852592,1002.5090471792611,574.3829532641462
1533222564.026,1070.7178102241603,903.7654867555711,619.6556865845716,1004.7965535618124,773.9291713647974
1533222564.03,972.1595473647704,859.4118243448756,486.4393662271025,997.9293469010795,916.8511402075615
1533222564.034,1010.2405443856136,887.1300245354818,533.5363235069773,995.6418405185283,922.2468186943415
1533222564.0379999,1086.397950908083,937.0364111957499,688.2811067240358,1002.5090471792611,771.2340934717076
1533222564.042,1155.8392292967715,948.1191491662668,798.6213684284775,1039.1278993523977,857.5262903559841
1533222564.046,1117.758232275928,1014.6609980466242,654.6408166412136,1048.282612395682,989.6624249257887
1533222564.05,1052.7989601623106,1014.6609980466242,516.0423805688471,1027.6856799265622,933.032652967301
1533222564.054,1066.2403914683064,937.0364111957499,521.4258741935537,1004.7965535618124,763.1433370918379
1533222564.0579998,1088.6366602860098,909.3068557408296,658.6780923822912,979.6199208145111,587.8638654301953
1533222564.061,1128.9563666847798,909.3068557408296,806.0234999237229,988.7746338577954,765.8439376855282
1533222564.065,1077.438525877158,870.4945623153925,669.4423238120859,984.1949335796138,835.9546218100651
1533222564.069,963.2001223338456,881.5886555502234,536.8998013513358,954.44328806721,897.9745495547322
1533222564.073,976.6369661206243,914.8595799904022,555.7385842632857,942.9963811282955,908.7659065282924
1533222564.0770001,1021.4386787944653,937.0364111957499,558.4296421207345,940.7088747457443,703.8184872402605
1533222564.081,1046.0782445093128,903.7654867555711,711.8295853639733,956.7307944497613,914.1560623144718
1533222564.085,1093.1186665610808,859.4118243448756,801.3138041957353,965.8855074930455,1013.9346940653979
1533222564.089,1084.159241530156,876.0472865649649,592.7423521904665,975.0402205363296,871.0127252226339
1533222564.093,1046.0782445093128,848.3177311100446,540.9370770924135,970.465207771227,930.3375750742113
1533222564.0970001,1104.3168009699325,787.3286064792597,672.1347595793438,975.0402205363296,1186.5190878339508
1533222564.1,1214.0777857573912,770.6931442591704,762.2900204882066,986.487127475244,1070.5589433232851
1533222564.1039999,1231.9966358192407,809.5054376846075,679.53551316478,1000.2168532836308,889.8893158754631
1533222564.1079998,1144.6365073687025,787.3286064792597,554.3923663796568,1023.1059796483808,811.6823526704559
1533222564.1120002,1086.397950908083,737.4335750833058,503.2595112685136,977.3324144319599,787.4156062314472
1533222564.1160002,1142.3977979907756,803.9640686993491,616.2908308304039,981.9074271970625,749.6624249257887
1533222564.12,1189.4382200425437,892.6713935207403,768.345934099823,1057.4373254389661,711.9092436201303
1533222564.1239998,1160.3166480526252,870.4945623153925,684.2452088927674,1050.5748062913121,795.506362611317
1533222564.1279998,1072.9565196020872,831.6822688899554,598.1258458151731,1002.5090471792611,1048.987274777366
1533222564.1320002,992.3171068045469,892.6713935207403,586.6878164886593,991.0621402403467,927.636974480521
1533222564.1360002,1010.2405443856136,870.4945623153925,530.1714677528096,993.354334135977,849.4355339761144
1533222564.14,1081.920532152229,809.5054376846075,656.6594545117524,1004.7965535618124,687.636974480521
1533222564.143,1155.8392292967715,815.05816193418,803.3310641564649,1050.5748062913121,520.4482591987481
1533222564.147,1135.6770823377778,876.0472865649649,604.8528015038902,1043.7075996305794,746.967347032699
1533222564.151,1057.2809664373815,903.7654867555711,520.0796563099248,1016.2387729876478,768.539015578618
1533222564.155,1052.7989601623106,815.05816193418,545.6467728204009,1013.9512666050965,498.87659065282924
1533222564.159,1079.677235255085,809.5054376846075,696.355658206191,1009.371566326915,625.6170467358538
1533222564.1629999,1111.0375166229303,848.3177311100446,755.5616868896802,1018.5309668832781,822.4737096440159
1533222564.167,1077.438525877158,842.7763621247863,606.1990193875191,1039.1278993523977,1191.9092436201302
1533222564.171,999.0378224575448,848.3177311100446,489.1304240845512,1032.2606926916649,1410.3375750742114
1533222564.175,985.596391151549,881.5886555502234,503.9319312554235,997.9293469010795,817.0780311572358
1533222564.179,1032.6368132033172,925.942317960919,706.4474696490759,1002.5090471792611,687.636974480521
1533222564.1829998,1108.7988072450034,964.7546113863561,788.5295569855926,1045.9951060131307,841.3503002968451
1533222564.186,1099.8393822140786,942.5777801810083,625.7102222863789,1050.5748062913121,1108.3121246289436
1533222564.19,1012.4792537635406,914.8595799904022,530.1714677528096,1009.371566326915,1272.8057620176266
1533222564.194,1001.2765318354717,925.942317960919,505.95056912596226,997.9293469010795,1078.6496997031547
1533222564.198,1057.2809664373815,953.6718734158393,596.1072079446343,1009.371566326915,649.8893158754631
