timestamps,TP9,AF7,AF8,TP10,Right AUX
1533057361.738,1000.5860030461832,434.6147522677703,849.2304922401066,939.6289082521783,1092.9167891420757
1533057361.742,995.2913235408008,413.17658910234786,841.4359103621283,956.0833463329842,1009.0477590195151
1533057361.746,959.9994836977567,420.9759134041977,837.7432093430797,937.8018853207942,880.6275000958503
1533057361.75,935.2933887497741,438.51441441869525,833.6413284841501,906.7237759900163,1140.0927831098957
1533057361.754,940.5880682551566,422.92374874672726,840.6150300673364,890.27308180866,1142.7175482766113
1533057361.758,1012.9390505201745,397.5859234303798,847.5895718555328,923.1782140708222,872.763939831559
1533057361.762,997.0586261197304,385.89092844347084,849.6405122849975,921.3474472399884,1006.4283614707273
1533057361.766,944.1154451816093,387.84275525186627,850.8714126246804,901.2389632964143,1132.2345904635322
1533057361.769,922.9403412757829,366.40459208644376,834.0513485290411,888.4423149778263,794.1337048065741
1533057361.7729998,914.1182848439477,350.80993494860985,844.307731086385,881.1304793528402,948.7694096898283
1533057361.7770002,991.763946614348,346.91426426355076,848.8204721952156,925.0052370022062,1268.5184096514881
1533057361.7810001,1011.1753620569482,325.4761010981283,841.4359103621283,950.5985336393823,1242.3083313098266
1533057361.785,944.1154451816093,321.57643894720337,841.8459304070193,928.663026764424,1074.5702710647054
1533057361.789,901.7652373699564,315.7289414537489,831.9995678945663,888.4423149778263,1145.336945825399
1533057361.793,910.5872938017916,313.78110611121934,827.4868267857357,866.5068081028681,1113.8880723861619
1533057361.7970002,974.1162196349743,329.3717717831874,839.7949899775546,886.6152920464422,1098.1609518575792
1533057361.801,1000.5860030461832,331.32359859158277,846.3586715158499,923.1782140708222,1197.7571025087225
1533057361.805,982.9418901825128,333.2714339341123,833.2304682342492,950.5985336393823,1113.8880723861619
1533057361.8079998,935.2933887497741,327.4239364406578,826.6667866959538,917.6934013772202,1092.9167891420757
1533057361.812,880.5865193484266,294.2907782883264,834.4613685739321,853.7101597842801,676.1964036959884
1533057361.816,926.471332317939,272.8526151229039,848.8204721952156,903.069730127248,573.9808554960573
1533057361.82,979.4108991403567,272.8526151229039,833.6413284841501,965.2222048893544,912.0763735350876
1533057361.824,951.1738131502182,261.15762013599493,837.7432093430797,952.4255565707664,1284.2455301800708
1533057361.8279998,933.5297002865477,286.4954454523424,848.8204721952156,946.9407438771644,1281.626132631283
1533057361.832,929.9987092443916,309.8814439602944,839.7949899775546,917.6934013772202,982.8430482957813
1533057361.836,970.5888427085216,304.0379379327058,851.2822728745814,912.2085886836182,1043.121397625468
1533057361.84,1030.5867774995481,311.83327076868983,863.1795758164992,946.9407438771644,898.9740181732207
1533057361.8439999,986.4692671089656,321.57643894720337,865.6405362908549,952.4255565707664,977.5988855802779
1533057361.8479998,926.471332317939,333.2714339341123,848.8204721952156,930.4900496958081,1014.2919217350186
1533057361.851,907.0563027596355,352.7617617570053,836.1022889585058,893.9271276714283,851.7980242054008
1533057361.855,938.8243797919301,350.80993494860985,854.5641136437291,888.4423149778263,846.5538614898974
1533057361.859,995.2913235408008,343.0146021126259,852.1023129643633,921.3474472399884,812.4802228839444
1533057361.863,952.9411157291479,356.65743244206436,852.9231932591553,926.8322599335903,597.5661686710033
1533057361.867,898.2342463278003,372.2520895798982,867.6923169253298,906.7237759900163,859.6562168517643
1533057361.871,878.8228308852002,372.2520895798982,843.4868507915932,871.99162079647,1132.2345904635322
1533057361.875,928.2350207811653,370.30026277150284,841.8459304070193,873.8186437278541,851.7980242054008
1533057361.879,1004.1169940883393,381.99525775841175,852.5123330092542,897.5849174336461,885.8662951934259
1533057361.883,975.8799080982006,381.99525775841175,850.0513725348985,908.55454282085,1079.814433780209
1533057361.887,921.1766528125564,395.63808808785024,840.6150300673364,906.7237759900163,1134.8539880123199
1533057361.891,878.8228308852002,411.2287537598183,830.3586475099925,881.1304793528402,909.4569759862998
1533057361.894,903.5289258331827,401.48558558130475,846.3586715158499,875.6456666592383,691.918156606643
1533057361.8979998,972.352531171748,407.3330830747592,861.5386554319253,928.663026764424,1014.2919217350186
1533057361.9020002,961.763172160983,415.12841591074323,860.7177751371335,961.5681590265862,980.2182831290656
1533057361.9060001,915.881973307174,415.12841591074323,861.5386554319253,946.9407438771644,1108.6439096706583
1533057361.91,880.5865193484266,417.07625125327274,847.9995919004238,915.8663784458361,1268.5184096514881
1533057361.914,905.2926142964092,417.07625125327274,847.9995919004238,901.2389632964143,964.496530218411
1533057361.918,991.763946614348,413.17658910234786,854.5641136437291,935.9748623894101,505.8335782841515
1533057361.9220002,977.6472106771304,405.38125626636383,860.7177751371335,965.2222048893544,555.634337418687
1533057361.926,922.9403412757829,420.9759134041977,854.1540935988381,956.0833463329842,927.8034940636702
1533057361.93,885.881198853809,428.7712462401817,837.3331892981888,923.1782140708222,833.4515061280305
1533057361.9329998,885.881198853809,415.12841591074323,841.0258903172374,904.8967530586322,1092.9167891420757
1533057361.937,958.2357952345303,411.2287537598183,840.2050100224454,926.8322599335903,967.1159277671987
1533057361.941,979.4108991403567,419.0240865958023,844.307731086385,950.5985336393823,875.3833373803468
1533057361.945,922.9403412757829,405.38125626636383,849.6405122849975,937.8018853207942,906.8322108195841
1533057361.949,873.5281513798177,397.5859234303798,838.1540695929807,882.9612461836739,906.8322108195841
1533057361.9529998,871.7644629165914,401.48558558130475,838.9741096827626,839.0864885343079,940.9058494255371
1533057361.957,921.1766528125564,389.7905905943958,851.2822728745814,857.3679495464979,938.2864518767493
1533057361.961,940.5880682551566,383.9430931009413,857.8459544128767,897.5849174336461,754.8212711030454
1533057361.965,908.8236053385652,383.9430931009413,860.7177751371335,906.7237759900163,691.918156606643
1533057361.9689999,870.000774453365,376.1477602649573,847.9995919004238,890.27308180866,1106.0245121218704
1533057361.9729998,857.6477269793737,368.3524274289733,842.2559504519103,862.8490183406503,1213.4788554193772
1533057361.976,938.8243797919301,366.40459208644376,849.6405122849975,892.1001047400441,684.0599639602797
1533057361.98,981.1745876035832,378.09559560748687,854.1540935988381,925.0052370022062,767.9289940828403
1533057361.984,928.2350207811653,391.73842593692535,859.0768547525596,910.3815657522341,1171.5470241670607
1533057361.988,899.9979347910266,403.43342092383426,844.717751131276,897.5849174336461,788.8949097089984
1533057361.992,891.1758783591914,415.12841591074323,834.871388618823,868.3338310342522,592.3273735734277
1533057361.996,949.4101246869918,411.2287537598183,856.2050340283029,882.9612461836739,841.309698774394
1533057362.0,998.8223145829569,409.2809184172888,854.1540935988381,926.8322599335903,1145.336945825399
1533057362.004,954.7048041923742,415.12841591074323,852.9231932591553,928.663026764424,1260.654849387197
1533057362.008,928.2350207811653,438.51441441869525,849.2304922401066,917.6934013772202,1040.5020000766804
1533057362.012,929.9987092443916,452.15724474813373,829.1277471703096,868.3338310342522,1050.9849578897592
1533057362.015,977.6472106771304,459.95257758411776,833.6413284841501,868.3338310342522,1231.8253734967475
1533057362.019,1039.4124480470869,467.7479104201018,844.307731086385,921.3474472399884,1192.512939793219
1533057362.0229998,1004.1169940883393,440.4622497612248,843.4868507915932,935.9748623894101,1032.638439812389
1533057362.0270002,944.1154451816093,422.92374874672726,839.7949899775546,910.3815657522341,686.6793615090675
1533057362.0310001,928.2350207811653,428.7712462401817,841.4359103621283,873.8186437278541,794.1337048065741
1533057362.035,963.5268606242095,436.56657907616574,855.795013983412,886.6152920464422,1106.0245121218704
1533057362.039,993.5276350775744,426.81941943178634,857.4359343679857,914.0356116150024,919.9399337993789
1533057362.043,967.0578516663655,415.12841591074323,866.051396540756,915.8663784458361,1082.4338313289966
1533057362.0470002,940.5880682551566,405.38125626636383,868.9232172650127,915.8663784458361,1273.7625723669917
1533057362.051,921.1766528125564,389.7905905943958,847.9995919004238,884.788269115058,757.4406686518333
1533057362.055,944.1154451816093,380.04742241588224,862.7687155665983,864.679785171484,542.5266144388922
1533057362.0579998,1009.4116735937217,381.99525775841175,872.6150780790513,910.3815657522341,770.5483916316281
1533057362.062,998.8223145829569,387.84275525186627,874.2559984636251,939.6289082521783,828.207343412527
1533057362.066,949.4101246869918,372.2520895798982,866.4614165856469,921.3474472399884,925.1787288969546
1533057362.07,905.2926142964092,360.5570945929893,847.9995919004238,877.4764334900719,652.6057229031145
1533057362.074,924.7040297390092,352.7617617570053,855.795013983412,850.0523700220623,862.2809820184799
1533057362.0779998,1002.353305625113,331.32359859158277,865.230516245964,879.3034564214561,1436.2564698966094
1533057362.082,1005.8806825515657,329.3717717831874,860.7177751371335,903.069730127248,1124.371030199241
1533057362.086,949.4101246869918,325.4761010981283,846.7686915607409,888.4423149778263,699.7817168709344
1533057362.09,899.9979347910266,321.57643894720337,846.3586715158499,871.99162079647,1011.6725241862308
1533057362.0939999,926.471332317939,343.0146021126259,861.5386554319253,873.8186437278541,1187.2741446956434
1533057362.0979998,1007.6443710147921,346.91426426355076,863.1795758164992,919.5204243086043,1113.8880723861619
1533057362.101,1019.9974184887833,343.0146021126259,854.97413368862,950.5985336393823,940.9058494255371
1533057362.105,967.0578516663655,348.86209960608033,868.5123570151117,917.6934013772202,875.3833373803468
1533057362.109,912.3509822650179,352.7617617570053,861.9486754768163,881.1304793528402,1229.2059759479596
1533057362.113,921.1766528125564,335.21926927664185,860.7177751371335,853.7101597842801,1182.0299819801398
1533057362.117,991.763946614348,323.5242742897329,882.4614405915044,886.6152920464422,967.1159277671987
1533057362.121,1005.8806825515657,335.21926927664185,886.9741817003348,948.7715107079981,686.6793615090675
1533057362.125,965.2941632031391,341.0667667700963,875.076878758417,952.4255565707664,754.8212711030454
1533057362.129,912.3509822650179,335.21926927664185,852.1023129643633,904.8967530586322,841.309698774394
1533057362.133,914.1182848439477,319.6286036046738,845.9486514709589,875.6456666592383,773.1677891804159
1533057362.137,990.0002581511217,335.21926927664185,863.9996159062812,912.2085886836182,1022.1554819993099
1533057362.14,1016.4700415623306,346.91426426355076,870.1541176046956,952.4255565707664,1223.9618132324563
1533057362.144,979.4108991403567,348.86209960608033,861.9486754768163,945.1137209457803,938.2864518767493
1533057362.1479998,919.4093502336268,348.86209960608033,852.9231932591553,903.069730127248,870.1391746648434
1533057362.1520002,896.470557864574,348.86209960608033,849.2304922401066,871.99162079647,1079.814433780209
1533057362.1560001,956.4684926556006,346.91426426355076,859.0768547525596,890.27308180866,883.2468976446381
1533057362.16,982.9418901825128,339.1189314275668,868.5123570151117,923.1782140708222,801.9972650708653
1533057362.164,937.0570772130005,362.5049299355188,871.7950379892694,928.663026764424,1200.3765000575102
1533057362.168,882.3502078116529,372.2520895798982,860.7177751371335,906.7237759900163,1213.4788554193772
1533057362.1720002,882.3502078116529,368.3524274289733,850.0513725348985,890.27308180866,851.7980242054008
1533057362.176,944.1154451816093,346.91426426355076,867.2822968804388,906.7237759900163,1077.195036231421
1533057362.18,993.5276350775744,327.4239364406578,867.2822968804388,945.1137209457803,1386.4610783800017
1533057362.1829998,979.4108991403567,325.4761010981283,861.5386554319253,952.4255565707664,1129.6098252968166
1533057362.187,919.4093502336268,311.83327076868983,879.5896198672476,932.3170726271923,1218.7230181348805
1533057362.191,887.6448873170353,305.9857732752353,871.3841777393684,899.4119403650302,1488.6766265799329
1533057362.195,940.5880682551566,317.6807682621443,868.1023369702208,899.4119403650302,980.2182831290656
1533057362.199,988.2329555721919,325.4761010981283,879.5896198672476,935.9748623894101,757.4406686518333
1533057362.2029998,956.4684926556006,329.3717717831874,879.5896198672476,935.9748623894101,948.7694096898283
1533057362.207,915.881973307174,356.65743244206436,862.3586955217073,899.4119403650302,833.4515061280305
1533057362.211,885.881198853809,378.09559560748687,854.5641136437291,862.8490183406503,995.9454036576482
1533057362.215,915.881973307174,346.91426426355076,863.9996159062812,861.0219954092662,1119.1268674837374
1533057362.2189999,975.8799080982006,311.83327076868983,873.8459784187341,890.27308180866,849.1732590386852
1533057362.2229998,937.0570772130005,325.4761010981283,871.7950379892694,890.27308180866,767.9289940828403
1533057362.226,891.1758783591914,343.0146021126259,862.3586955217073,864.679785171484,843.9344639411096
1533057362.23,892.9395668224179,356.65743244206436,858.6668347076687,851.883136852896,925.1787288969546
1533057362.234,931.762397707618,366.40459208644376,870.5641376495865,851.883136852896,1074.5702710647054
1533057362.238,995.2913235408008,358.60925925045973,868.1023369702208,895.7578945022619,925.1787288969546
1533057362.242,977.6472106771304,350.80993494860985,861.9486754768163,908.55454282085,883.2468976446381
1533057362.246,922.9403412757829,352.7617617570053,872.6150780790513,879.3034564214561,1071.9508735159175
1533057362.25,873.5281513798177,352.7617617570053,862.7687155665983,848.2253470906782,912.0763735350876
1533057362.254,894.7032552856442,354.7095970995348,866.8714366305378,831.7746529093218,838.690301225606
1533057362.258,954.7048041923742,372.2520895798982,868.5123570151117,877.4764334900719,990.7012409421448
1533057362.262,952.9411157291479,381.99525775841175,866.4614165856469,934.1440955585764,990.7012409421448
1533057362.265,921.1766528125564,374.1999249224278,865.6405362908549,923.1782140708222,995.9454036576482
1533057362.269,898.2342463278003,383.9430931009413,845.5386314260679,890.27308180866,864.9003795672678
1533057362.2729998,917.6456617704004,381.99525775841175,845.5386314260679,875.6456666592383,872.763939831559
1533057362.2770002,986.4692671089656,364.4527652780484,873.0250981239423,914.0356116150024,880.6275000958503
1533057362.2810001,1005.8806825515657,364.4527652780484,877.1278191878819,954.2563234016001,972.3547228647743
1533057362.285,961.763172160983,387.84275525186627,861.9486754768163,945.1137209457803,1024.7748795480977
1533057362.289,917.6456617704004,403.43342092383426,851.6922929194724,919.5204243086043,1001.1895663731517
1533057362.293,940.5880682551566,399.5337587729093,855.384153733511,895.7578945022619,1014.2919217350186
1533057362.2970002,1016.4700415623306,401.48558558130475,863.5895958613902,932.3170726271923,864.9003795672678
1533057362.301,1028.8230890363218,393.6902527453207,870.5641376495865,978.0188532079425,657.8498856186179
1533057362.305,979.4108991403567,399.5337587729093,874.6668587135262,972.5340405143405,678.8158012447761
1533057362.3079998,928.2350207811653,401.48558558130475,862.7687155665983,919.5204243086043,1134.8539880123199
1533057362.312,912.3509822650179,376.1477602649573,859.0768547525596,881.1304793528402,1271.143174818204
1533057362.316,958.2357952345303,358.60925925045973,873.8459784187341,925.0052370022062,1108.6439096706583
1533057362.32,974.1162196349743,356.65743244206436,859.0768547525596,954.2563234016001,1255.4160542896213
1533057362.324,938.8243797919301,368.3524274289733,854.1540935988381,928.663026764424,1252.7966567408334
1533057362.3279998,907.0563027596355,368.3524274289733,867.6923169253298,912.2085886836182,864.9003795672678
1533057362.332,882.3502078116529,374.1999249224278,856.2050340283029,879.3034564214561,854.4174217541887
1533057362.336,933.5297002865477,381.99525775841175,863.5895958613902,895.7578945022619,783.650746993495
1533057362.34,993.5276350775744,383.9430931009413,875.896918848199,959.7373921957525,560.8731325162626
1533057362.3439999,959.9994836977567,387.84275525186627,873.4359583738432,970.7070175829564,781.0313494447072
1533057362.3470001,898.2342463278003,387.84275525186627,858.2559744577677,919.5204243086043,1111.263307219446
1533057362.351,875.2918398430442,374.1999249224278,845.5386314260679,879.3034564214561,1417.909951819239
1533057362.355,931.762397707618,362.5049299355188,845.5386314260679,892.1001047400441,1147.9563433741869
1533057362.359,979.4108991403567,374.1999249224278,859.0768547525596,923.1782140708222,668.332843431697
1533057362.363,959.9994836977567,372.2520895798982,858.6668347076687,941.459675083012,1003.8089639219395
1533057362.367,935.2933887497741,354.7095970995348,838.9741096827626,925.0052370022062,1116.5074699349495
1533057362.371,919.4093502336268,366.40459208644376,848.8204721952156,893.9271276714283,778.4119518959193
1533057362.375,972.352531171748,380.04742241588224,865.6405362908549,914.0356116150024,1003.8089639219395
1533057362.379,1028.8230890363218,380.04742241588224,856.6150540731938,957.9103692643683,951.3888072386162
1533057362.383,998.8223145829569,378.09559560748687,860.3077550922425,965.2222048893544,898.9740181732207
1533057362.387,958.2357952345303,383.9430931009413,850.8714126246804,950.5985336393823,1171.5470241670607
1533057362.39,947.6464362237654,381.99525775841175,841.0258903172374,917.6934013772202,739.0941505744629
1533057362.394,1000.5860030461832,378.09559560748687,871.7950379892694,910.3815657522341,912.0763735350876
1533057362.3979998,1067.6459199215221,374.1999249224278,864.4104761561821,961.5681590265862,1231.8253734967475
1533057362.4020002,1042.9398249735395,352.7617617570053,852.9231932591553,970.7070175829564,1171.5470241670607
1533057362.4060001,975.8799080982006,354.7095970995348,857.0259143230949,932.3170726271923,1195.1323373420066
1533057362.41,929.9987092443916,362.5049299355188,831.9995678945663,895.7578945022619,1009.0477590195151
1533057362.414,937.0570772130005,372.2520895798982,842.6668107018112,901.2389632964143,914.6957710838755
1533057362.418,979.4108991403567,381.99525775841175,862.3586955217073,945.1137209457803,1166.3028614515572
1533057362.4220002,972.352531171748,397.5859234303798,849.6405122849975,965.2222048893544,1074.5702710647054
1533057362.426,935.2933887497741,403.43342092383426,856.2050340283029,948.7715107079981,995.9454036576482
1533057362.43,892.9395668224179,395.63808808785024,843.8977110414942,914.0356116150024,1260.654849387197
1533057362.4329998,917.6456617704004,389.7905905943958,839.7949899775546,893.9271276714283,883.2468976446381
1533057362.437,995.2913235408008,370.30026277150284,850.4613925797895,934.1440955585764,804.6166626196532
1533057362.441,986.4692671089656,356.65743244206436,839.3841297276535,957.9103692643683,906.8322108195841
1533057362.445,926.471332317939,360.5570945929893,831.9995678945663,934.1440955585764,710.2646746840135
1533057362.449,884.1175103905827,370.30026277150284,829.1277471703096,895.7578945022619,859.6562168517643
1533057362.4529998,905.2926142964092,372.2520895798982,836.5123090033968,871.99162079647,940.9058494255371
1533057362.457,970.5888427085216,362.5049299355188,848.4104521503247,897.5849174336461,943.5252469743249
1533057362.461,979.4108991403567,366.40459208644376,848.8204721952156,914.0356116150024,1045.740795174256
1533057362.465,944.1154451816093,387.84275525186627,856.2050340283029,892.1001047400441,733.8553554768873
1533057362.4689999,905.2926142964092,393.6902527453207,859.0768547525596,862.8490183406503,600.1909338377191
1533057362.4720001,914.1182848439477,399.5337587729093,852.5123330092542,851.883136852896,862.2809820184799
1533057362.476,986.4692671089656,411.2287537598183,866.051396540756,892.1001047400441,765.3042289161245
1533057362.48,997.0586261197304,419.0240865958023,860.7177751371335,915.8663784458361,799.3778675220775
1533057362.484,947.6464362237654,417.07625125327274,858.6668347076687,906.7237759900163,1134.8539880123199
1533057362.488,915.881973307174,405.38125626636383,855.795013983412,906.7237759900163,985.4624458445692
1533057362.492,915.881973307174,407.3330830747592,848.8204721952156,888.4423149778263,636.878602374532
1533057362.496,958.2357952345303,409.2809184172888,868.5123570151117,892.1001047400441,739.0941505744629
1533057362.5,1002.353305625113,411.2287537598183,866.8714366305378,935.9748623894101,1024.7748795480977
1533057362.504,988.2329555721919,422.92374874672726,855.795013983412,932.3170726271923,864.9003795672678
1533057362.508,919.4093502336268,419.0240865958023,847.5895718555328,875.6456666592383,707.6452771352257
1533057362.512,907.0563027596355,419.0240865958023,848.8204721952156,840.9135114656921,1037.8772349099645
1533057362.515,965.2941632031391,411.2287537598183,864.8204962010731,857.3679495464979,1087.6779940445
1533057362.519,984.7055786457393,387.84275525186627,857.0259143230949,901.2389632964143,1121.751632650453
1533057362.5229998,958.2357952345303,409.2809184172888,865.230516245964,912.2085886836182,1187.2741446956434
1533057362.5270002,921.1766528125564,420.9759134041977,878.3587195275647,901.2389632964143,1006.4283614707273
1533057362.5310001,901.7652373699564,401.48558558130475,863.9996159062812,877.4764334900719,948.7694096898283
1533057362.535,951.1738131502182,419.0240865958023,868.5123570151117,871.99162079647,1142.7175482766113
1533057362.539,1007.6443710147921,454.1050800906633,869.3332373099037,904.8967530586322,1234.4501386634631
1533057362.543,984.7055786457393,465.8000750775722,861.5386554319253,925.0052370022062,1121.751632650453
1533057362.5470002,944.1154451816093,465.8000750775722,854.97413368862,901.2389632964143,1205.6152951550857
1533057362.551,937.0570772130005,465.8000750775722,844.717751131276,866.5068081028681,1273.7625723669917
1533057362.555,1002.353305625113,475.5432432560858,858.2559744577677,897.5849174336461,1231.8253734967475
1533057362.5579998,1064.114928879366,465.8000750775722,863.5895958613902,943.2866980143962,1126.9904277480287
1533057362.562,1021.764721067713,446.3097472546793,863.1795758164992,932.3170726271923,857.0368193029765
1533057362.566,998.8223145829569,459.95257758411776,874.6668587135262,932.3170726271923,843.9344639411096
1533057362.57,959.9994836977567,456.0569068990587,859.8977350473516,912.2085886836182,1064.0873132516263
1533057362.574,967.0578516663655,442.4140765696202,866.051396540756,897.5849174336461,1121.751632650453
1533057362.5779998,1046.4708160156956,448.25758259720885,875.486898803308,945.1137209457803,977.5988855802779
1533057362.582,1014.7063530991043,440.4622497612248,868.5123570151117,961.5681590265862,1071.9508735159175
1533057362.586,937.0570772130005,411.2287537598183,854.97413368862,919.5204243086043,815.10498805066
1533057362.59,899.9979347910266,399.5337587729093,839.3841297276535,879.3034564214561,684.0599639602797
1533057362.5939999,931.762397707618,391.73842593692535,848.4104521503247,871.99162079647,754.8212711030454
1533057362.5970001,1000.5860030461832,389.7905905943958,871.3841777393684,906.7237759900163,778.4119518959193
1533057362.601,979.4108991403567,397.5859234303798,867.6923169253298,946.9407438771644,912.0763735350876
1533057362.605,928.2350207811653,387.84275525186627,857.4359343679857,930.4900496958081,891.1104579089294
1533057362.609,892.9395668224179,378.09559560748687,854.1540935988381,881.1304793528402,990.7012409421448
1533057362.613,912.3509822650179,372.2520895798982,850.4613925797895,862.8490183406503,1140.0927831098957
1533057362.617,981.1745876035832,364.4527652780484,849.2304922401066,892.1001047400441,1142.7175482766113
1533057362.621,982.9418901825128,372.2520895798982,853.7432333489371,915.8663784458361,1014.2919217350186
1533057362.625,951.1738131502182,378.09559560748687,856.6150540731938,899.4119403650302,718.1282349483047
1533057362.629,912.3509822650179,372.2520895798982,843.0768307467022,866.5068081028681,828.207343412527
1533057362.633,914.1182848439477,370.30026277150284,843.0768307467022,868.3338310342522,1014.2919217350186
1533057362.637,979.4108991403567,385.89092844347084,870.5641376495865,926.8322599335903,1006.4283614707273
1533057362.64,990.0002581511217,380.04742241588224,870.1541176046956,961.5681590265862,925.1787288969546
1533057362.644,940.5880682551566,368.3524274289733,868.5123570151117,939.6289082521783,762.6848313673368
1533057362.6479998,894.7032552856442,387.84275525186627,862.7687155665983,915.8663784458361,760.065433818549
1533057362.6520002,894.7032552856442,387.84275525186627,868.1023369702208,884.788269115058,859.6562168517643
1533057362.6560001,975.8799080982006,380.04742241588224,895.1796238282141,923.1782140708222,1106.0245121218704
1533057362.66,1002.353305625113,391.73842593692535,877.9486994826738,954.2563234016001,1111.263307219446
1533057362.664,938.8243797919301,385.89092844347084,867.6923169253298,914.0356116150024,725.991795212596
1533057362.668,873.5281513798177,380.04742241588224,868.1023369702208,870.1645978650859,781.0313494447072
1533057362.6720002,861.1751039058265,389.7905905943958,861.1277951820244,842.7405343970762,841.309698774394
1533057362.676,931.762397707618,393.6902527453207,884.5123810209691,864.679785171484,951.3888072386162
1533057362.679,958.2357952345303,380.04742241588224,879.5896198672476,906.7237759900163,838.690301225606
1533057362.6829998,910.5872938017916,372.2520895798982,866.4614165856469,915.8663784458361,618.5374519150894
1533057362.687,852.3530474739913,376.1477602649573,859.8977350473516,875.6456666592383,1205.6152951550857
1533057362.691,838.2326974210703,370.30026277150284,852.5123330092542,840.9135114656921,1255.4160542896213
1533057362.695,914.1182848439477,370.30026277150284,868.9232172650127,871.99162079647,1027.3942770968856
1533057362.699,970.5888427085216,385.89092844347084,871.7950379892694,908.55454282085,961.8717650516953
1533057362.7029998,926.471332317939,403.43342092383426,878.7687395724557,892.1001047400441,1011.6725241862308
1533057362.707,882.3502078116529,405.38125626636383,880.8205202069305,868.3338310342522,1420.5347169859547
1533057362.711,864.7060949479826,399.5337587729093,856.6150540731938,835.4286987720901,1161.0640663539816
1533057362.715,912.3509822650179,395.63808808785024,875.076878758417,848.2253470906782,741.7189157411785
1533057362.7189999,977.6472106771304,407.3330830747592,882.4614405915044,901.2389632964143,1043.121397625468
1533057362.7220001,947.6464362237654,420.9759134041977,870.5641376495865,908.55454282085,1087.6779940445
1533057362.726,892.9395668224179,415.12841591074323,857.0259143230949,879.3034564214561,885.8662951934259
1533057362.73,875.2918398430442,424.87158408925677,848.4104521503247,844.5713012279099,725.991795212596
1533057362.734,912.3509822650179,413.17658910234786,865.230516245964,837.2594656029238,1014.2919217350186
1533057362.738,954.7048041923742,391.73842593692535,856.6150540731938,864.679785171484,1229.2059759479596
1533057362.742,933.5297002865477,389.7905905943958,845.127771176167,886.6152920464422,1182.0299819801398
1533057362.746,901.7652373699564,405.38125626636383,844.307731086385,881.1304793528402,1085.0585964957122
1533057362.75,885.881198853809,411.2287537598183,843.0768307467022,857.3679495464979,846.5538614898974
1533057362.754,922.9403412757829,422.92374874672726,856.2050340283029,853.7101597842801,1032.638439812389
1533057362.758,984.7055786457393,436.56657907616574,853.7432333489371,901.2389632964143,930.422891612458
1533057362.762,959.9994836977567,442.4140765696202,841.4359103621283,901.2389632964143,809.8608253351566
1533057362.765,903.5289258331827,448.25758259720885,853.3332133040462,866.5068081028681,964.496530218411
1533057362.769,864.7060949479826,442.4140765696202,850.0513725348985,831.7746529093218,1014.2919217350186
1533057362.7729998,896.470557864574,444.36191191214976,855.384153733511,818.9780045907338,940.9058494255371
1533057362.7770002,965.2941632031391,430.7190815827112,865.230516245964,871.99162079647,1082.4338313289966
1533057362.7810001,958.2357952345303,419.0240865958023,858.6668347076687,910.3815657522341,935.6670543279614
1533057362.785,919.4093502336268,419.0240865958023,852.9231932591553,904.8967530586322,875.3833373803468
1533057362.789,887.6448873170353,405.38125626636383,835.692268913615,861.0219954092662,1113.8880723861619
1533057362.793,907.0563027596355,391.73842593692535,849.2304922401066,831.7746529093218,1066.712078418342
1533057362.7970002,961.763172160983,389.7905905943958,876.3077790980999,879.3034564214561,1132.2345904635322
1533057362.801,956.4684926556006,383.9430931009413,860.7177751371335,912.2085886836182,1166.3028614515572
1533057362.804,908.8236053385652,368.3524274289733,866.051396540756,892.1001047400441,972.3547228647743
1533057362.8079998,864.7060949479826,368.3524274289733,869.3332373099037,877.4764334900719,702.4011144197221
1533057362.812,870.000774453365,364.4527652780484,863.1795758164992,864.679785171484,587.0832108579243
1533057362.816,938.8243797919301,356.65743244206436,875.896918848199,886.6152920464422,843.9344639411096
1533057362.82,949.4101246869918,374.1999249224278,881.6405602967124,904.8967530586322,1247.5524940253301
1533057362.824,907.0563027596355,395.63808808785024,864.4104761561821,888.4423149778263,815.10498805066
1533057362.8279998,877.0591424219738,403.43342092383426,856.2050340283029,871.99162079647,581.8444157603486
1533057362.832,875.2918398430442,401.48558558130475,858.6668347076687,844.5713012279099,870.1391746648434
1533057362.836,956.4684926556006,401.48558558130475,868.9232172650127,871.99162079647,809.8608253351566
1533057362.84,981.1745876035832,391.73842593692535,870.9741576944774,912.2085886836182,801.9972650708653
1533057362.8439999,919.4093502336268,407.3330830747592,875.486898803308,899.4119403650302,1098.1609518575792
1533057362.8470001,877.0591424219738,409.2809184172888,876.3077790980999,881.1304793528402,1417.909951819239
1533057362.851,866.4697834112089,397.5859234303798,856.2050340283029,862.8490183406503,1192.512939793219
1533057362.855,929.9987092443916,389.7905905943958,871.7950379892694,886.6152920464422,961.8717650516953
1533057362.859,979.4108991403567,378.09559560748687,884.5123810209691,930.4900496958081,896.349253006505
1533057362.863,938.8243797919301,381.99525775841175,884.9232412708701,930.4900496958081,927.8034940636702
1533057362.867,889.4121898959651,383.9430931009413,877.5386794377828,897.5849174336461,995.9454036576482
1533057362.871,878.8228308852002,389.7905905943958,871.7950379892694,866.5068081028681,883.2468976446381
1533057362.875,926.471332317939,378.09559560748687,883.2823208862962,857.3679495464979,940.9058494255371
1533057362.879,959.9994836977567,376.1477602649573,882.0514205466134,879.3034564214561,1299.9726507086534
1533057362.883,933.5297002865477,381.99525775841175,880.8205202069305,910.3815657522341,1318.3191687860237
1533057362.887,892.9395668224179,350.80993494860985,874.6668587135262,893.9271276714283,1234.4501386634631
1533057362.89,875.2918398430442,350.80993494860985,863.9996159062812,862.8490183406503,1061.4679157028384
1533057362.894,928.2350207811653,346.91426426355076,874.6668587135262,877.4764334900719,830.8267409613148
1533057362.8979998,972.352531171748,321.57643894720337,862.7687155665983,908.55454282085,621.1568494638772
1533057362.9020002,921.1766528125564,325.4761010981283,866.4614165856469,892.1001047400441,828.207343412527
1533057362.9060001,885.881198853809,335.21926927664185,875.076878758417,862.8490183406503,1064.0873132516263
1533057362.91,877.0591424219738,337.16710461917137,858.6668347076687,844.5713012279099,762.6848313673368
1533057362.914,919.4093502336268,335.21926927664185,875.896918848199,839.0864885343079,909.4569759862998
1533057362.918,986.4692671089656,348.86209960608033,879.9996399121386,886.6152920464422,927.8034940636702
1533057362.9220002,954.7048041923742,364.4527652780484,873.8459784187341,910.3815657522341,843.9344639411096
1533057362.926,894.7032552856442,354.7095970995348,855.384153733511,881.1304793528402,783.650746993495
1533057362.929,871.7644629165914,346.91426426355076,820.5122849975394,848.2253470906782,594.9467711222155
1533057362.9329998,914.1182848439477,344.96642892102125,836.1022889585058,840.9135114656921,974.9794880314901
1533057362.937,986.4692671089656,337.16710461917137,853.7432333489371,884.788269115058,930.422891612458
1533057362.941,974.1162196349743,337.16710461917137,842.2559504519103,908.55454282085,799.3778675220775
1533057362.945,933.5297002865477,358.60925925045973,854.5641136437291,901.2389632964143,1119.1268674837374
1533057362.949,908.8236053385652,352.7617617570053,847.9995919004238,886.6152920464422,1163.6834639027695
1533057362.9529998,931.762397707618,350.80993494860985,845.5386314260679,864.679785171484,1064.0873132516263
1533057362.957,984.7055786457393,366.40459208644376,861.9486754768163,914.0356116150024,1399.5634337418687
1533057362.961,979.4108991403567,366.40459208644376,854.5641136437291,967.0492278207386,1092.9167891420757
1533057362.965,933.5297002865477,380.04742241588224,852.5123330092542,946.9407438771644,765.3042289161245
1533057362.9689999,885.881198853809,391.73842593692535,845.9486514709589,899.4119403650302,702.4011144197221
1533057362.9720001,914.1182848439477,391.73842593692535,846.3586715158499,884.788269115058,665.7134458829092
1533057362.976,990.0002581511217,387.84275525186627,852.5123330092542,930.4900496958081,838.690301225606
1533057362.98,972.352531171748,380.04742241588224,861.9486754768163,961.5681590265862,846.5538614898974
1533057362.984,903.5289258331827,370.30026277150284,872.6150780790513,943.2866980143962,1045.740795174256
1533057362.988,864.7060949479826,366.40459208644376,863.9996159062812,897.5849174336461,1302.592048257441
1533057362.992,871.7644629165914,366.40459208644376,855.384153733511,844.5713012279099,925.1787288969546
1533057362.996,929.9987092443916,348.86209960608033,868.5123570151117,862.8490183406503,1009.0477590195151
1533057363.0,945.882747760539,335.21926927664185,859.4868747974506,897.5849174336461,1043.121397625468
1533057363.004,905.2926142964092,346.91426426355076,850.8714126246804,892.1001047400441,741.7189157411785
1533057363.008,864.7060949479826,364.4527652780484,844.717751131276,851.883136852896,678.8158012447761
1533057363.012,840.0,366.40459208644376,847.9995919004238,793.3847079535578,801.9972650708653
1533057363.015,898.2342463278003,378.09559560748687,873.8459784187341,806.1813562721459,739.0941505744629
1533057363.019,963.5268606242095,419.0240865958023,872.6150780790513,877.4764334900719,665.7134458829092
1533057363.0229998,949.4101246869918,436.56657907616574,862.3586955217073,904.8967530586322,875.3833373803468
1533057363.0270002,887.6448873170353,446.3097472546793,861.1277951820244,840.9135114656921,825.5879458637392
1533057363.0310001,836.4690089578439,458.00474224158825,869.3332373099037,782.4150825663539,741.7189157411785
1533057363.035,894.7032552856442,459.95257758411776,886.564161655444,808.00837920353,1003.8089639219395
1533057363.039,940.5880682551566,463.8522397350427,869.7432573547945,839.0864885343079,1229.2059759479596
1533057363.043,901.7652373699564,477.4950700644812,866.8714366305378,833.601675840706,1108.6439096706583
1533057363.0470002,843.5273769264527,475.5432432560858,887.3842017452258,828.116863147104,1106.0245121218704
1533057363.051,820.5885845573999,477.4950700644812,875.896918848199,811.6661689657478,990.7012409421448
1533057363.054,870.000774453365,461.90041292664733,891.0769027642745,826.2898402157199,1106.0245121218704
1533057363.0579998,921.1766528125564,448.25758259720885,898.8714846422527,857.3679495464979,1273.7625723669917
1533057363.062,859.4114154426001,450.2094094056042,893.5387034436402,828.116863147104,985.4624458445692
1533057363.066,762.3507241138963,436.56657907616574,883.6923409311872,776.930269872752,1022.1554819993099
1533057363.07,739.4119317448434,444.36191191214976,871.3841777393684,764.1336215541639,938.2864518767493
1533057363.074,779.99845109327,458.00474224158825,897.2305642576789,756.8217859291778,980.2182831290656
1533057363.0779998,822.3522730206263,444.36191191214976,898.8714846422527,778.7610367035857,1182.0299819801398
1533057363.082,811.7629140098613,440.4622497612248,888.2050820400177,811.6661689657478,1074.5702710647054
1533057363.086,769.4090920825051,452.15724474813373,894.3587435334222,784.2421054977381,988.081843393357
1533057363.09,741.1756202080699,465.8000750775722,884.1023609760782,749.5099503041919,1242.3083313098266
1533057363.0939999,806.4682345044789,491.13790039391967,889.8460024245916,775.1032469413678,1265.8990121027005
1533057363.0970001,892.9395668224179,508.67640140841723,899.2815046871436,815.320214828516,1071.9508735159175
1533057363.101,841.7636884632263,498.9332332299037,899.6923649370447,795.211730884942,1040.5020000766804
1533057363.105,776.4710741668173,479.4429054070107,902.5641856613014,776.930269872752,857.0368193029765
1533057363.109,765.8817151560523,465.8000750775722,896.8205442127879,789.72691819134,697.1623193221466
1533057363.113,797.6461780726437,452.15724474813373,904.2051060458751,791.5576850221737,891.1104579089294
1533057363.117,857.6477269793737,442.4140765696202,914.8715086481102,818.9780045907338,1163.6834639027695
1533057363.121,855.880424400444,452.15724474813373,921.0251701415145,840.9135114656921,1124.371030199241
1533057363.125,825.8832640627824,446.3097472546793,916.1024089877931,846.398324159294,1174.1664217158486
1533057363.129,790.5878101040349,434.6147522677703,896.8205442127879,817.1472377599001,1252.7966567408334
1533057363.133,818.8212819784702,450.2094094056042,889.8460024245916,817.1472377599001,969.7353253159865
1533057363.1360002,910.5872938017916,458.00474224158825,906.25604647534,873.8186437278541,946.1500121410405
1533057363.14,928.2350207811653,458.00474224158825,895.589643873105,888.4423149778263,1074.5702710647054
1533057363.144,880.5865193484266,473.59540791355624,890.6668827193836,862.8490183406503,1022.1554819993099
1533057363.1479998,850.5857448950616,487.2382382429947,887.3842017452258,837.2594656029238,1030.0190422636012
1533057363.1520002,866.4697834112089,477.4950700644812,879.1795998223566,818.9780045907338,838.690301225606
1533057363.1560001,926.471332317939,452.15724474813373,895.589643873105,859.1949724778821,794.1337048065741
1533057363.16,949.4101246869918,450.2094094056042,894.3587435334222,917.6934013772202,1074.5702710647054
1533057363.164,947.6464362237654,450.2094094056042,881.6405602967124,950.5985336393823,1205.6152951550857
1533057363.168,919.4093502336268,446.3097472546793,877.5386794377828,923.1782140708222,1106.0245121218704
1533057363.1720002,938.8243797919301,458.00474224158825,887.3842017452258,912.2085886836182,1176.7858192646363
1533057363.176,1037.6451454681571,463.8522397350427,900.9232652767275,976.1918302765583,1271.143174818204
1533057363.179,1035.8814570049308,442.4140765696202,888.2050820400177,999.9581039823502,1077.195036231421
1533057363.1829998,986.4692671089656,448.25758259720885,879.1795998223566,983.5036659015443,888.4856927422138
1533057363.187,954.7048041923742,456.0569068990587,878.3587195275647,981.6766429701602,843.9344639411096
1533057363.191,963.5268606242095,452.15724474813373,874.6668587135262,979.8458761393265,891.1104579089294
1533057363.195,1041.1761365103132,452.15724474813373,888.6151020849087,1005.4391727765026,883.2468976446381
1533057363.199,1064.114928879366,448.25758259720885,890.2560224694826,1045.6598845631004,901.5934157220086
1533057363.2029998,1018.233730025557,438.51441441869525,885.3332613157611,1042.0020948008826,1179.410584431352
1533057363.207,974.1162196349743,419.0240865958023,868.1023369702208,1001.7851269137343,980.2182831290656
1533057363.211,972.352531171748,430.7190815827112,864.8204962010731,978.0188532079425,833.4515061280305
1533057363.215,1051.765495521078,436.56657907616574,878.7687395724557,1009.0969625387204,954.0135724053318
1533057363.2189999,1094.115703332731,432.6669169252408,871.7950379892694,1071.2531812002762,930.422891612458
1533057363.2220001,1060.5875519529131,436.56657907616574,857.8459544128767,1087.7038753816325,1106.0245121218704
1533057363.226,1034.1177685417042,430.7190815827112,852.5123330092542,1076.7342499944286,946.1500121410405
1533057363.23,1027.0594005730954,442.4140765696202,851.6922929194724,1049.3139304258686,1058.8485181540507
1533057363.234,1079.9989673955133,454.1050800906633,864.4104761561821,1060.2835558130726,1454.60298797398
1533057363.238,1124.116477786096,444.36191191214976,857.0259143230949,1102.3275466316047,1171.5470241670607
1533057363.242,1079.9989673955133,448.25758259720885,847.9995919004238,1069.4224143694425,786.2755121602106
1533057363.246,1019.9974184887833,452.15724474813373,866.4614165856469,1042.0020948008826,1022.1554819993099
1533057363.25,991.763946614348,434.6147522677703,861.5386554319253,1034.6902591758965,912.0763735350876
1533057363.254,1046.4708160156956,436.56657907616574,861.9486754768163,1051.1409533572528,851.7980242054008
1533057363.258,1122.3527893228695,444.36191191214976,862.3586955217073,1096.8427339380028,917.3205362505911
1533057363.2610002,1120.58548674394,436.56657907616574,861.9486754768163,1102.3275466316047,1179.410584431352
1533057363.265,1081.7626558587397,434.6147522677703,866.8714366305378,1076.7342499944286,1061.4679157028384
1533057363.269,1030.5867774995481,426.81941943178634,856.6150540731938,1036.5172821072806,854.4174217541887
1533057363.2729998,1069.4096083847485,420.9759134041977,857.8459544128767,1018.2358210950906,1069.3314759671298
1533057363.2770002,1154.1172522394609,417.07625125327274,859.8977350473516,1063.9376016758406,977.5988855802779
1533057363.2810001,1140.0005163022433,419.0240865958023,857.8459544128767,1098.6735007688364,1024.7748795480977
1533057363.285,1079.9989673955133,428.7712462401817,861.1277951820244,1067.5953914380584,919.9399337993789
1533057363.289,1023.5284095309394,407.3330830747592,852.9231932591553,1012.7547523009382,872.763939831559
1533057363.293,1044.703513436766,376.1477602649573,863.1795758164992,1012.7547523009382,898.9740181732207
1533057363.2970002,1095.8830059116606,378.09559560748687,884.9232412708701,1060.2835558130726,746.9577108387542
1533057363.301,1049.9981929421483,381.99525775841175,874.2559984636251,1063.9376016758406,904.2128132707963
1533057363.304,1012.9390505201745,372.2520895798982,854.1540935988381,1040.1750718694984,760.065433818549
1533057363.3079998,995.2913235408008,378.09559560748687,854.5641136437291,1007.2699396073363,511.07774099965496
1533057363.312,1011.1753620569482,387.84275525186627,869.7432573547945,992.6425244579145,872.763939831559
1533057363.316,1088.8210238273484,393.6902527453207,882.4614405915044,1036.5172821072806,720.7476324970926
1533057363.32,1076.4679763533572,389.7905905943958,879.9996399121386,1060.2835558130726,492.7312229222846
1533057363.324,1014.7063530991043,387.84275525186627,867.2822968804388,1045.6598845631004,927.8034940636702
1533057363.3279998,958.2357952345303,378.09559560748687,847.9995919004238,1003.6121498451184,1200.3765000575102
1533057363.332,951.1738131502182,368.3524274289733,841.8459304070193,959.7373921957525,1108.6439096706583
1533057363.336,1025.2920979941657,372.2520895798982,857.0259143230949,981.6766429701602,1035.2578373611768
1533057363.34,1021.764721067713,372.2520895798982,859.4868747974506,1001.7851269137343,980.2182831290656
1533057363.3439999,977.6472106771304,362.5049299355188,855.384153733511,990.8155015265304,1001.1895663731517
1533057363.3470001,958.2357952345303,352.7617617570053,843.0768307467022,974.3648073451742,951.3888072386162
1533057363.351,940.5880682551566,344.96642892102125,842.2559504519103,934.1440955585764,914.6957710838755
1533057363.355,991.763946614348,323.5242742897329,870.5641376495865,948.7715107079981,933.0422891612458
1533057363.359,1018.233730025557,323.5242742897329,863.9996159062812,988.9884785951463,697.1623193221466
1533057363.363,977.6472106771304,337.16710461917137,851.2822728745814,970.7070175829564,1035.2578373611768
1533057363.367,935.2933887497741,346.91426426355076,859.0768547525596,939.6289082521783,1116.5074699349495
1533057363.371,919.4093502336268,341.0667667700963,859.4868747974506,925.0052370022062,909.4569759862998
1533057363.375,977.6472106771304,348.86209960608033,869.3332373099037,945.1137209457803,1202.995897606298
1533057363.379,1018.233730025557,364.4527652780484,868.9232172650127,992.6425244579145,1273.7625723669917
1533057363.383,986.4692671089656,374.1999249224278,859.8977350473516,1009.0969625387204,1184.6493795289277
1533057363.3860002,959.9994836977567,385.89092844347084,847.5895718555328,983.5036659015443,1389.0804759287896
1533057363.39,937.0570772130005,393.6902527453207,838.1540695929807,939.6289082521783,1229.2059759479596
1533057363.394,981.1745876035832,401.48558558130475,855.795013983412,941.459675083012,954.0135724053318
1533057363.3979998,1030.5867774995481,399.5337587729093,853.3332133040462,983.5036659015443,1056.223752987335
1533057363.4020002,984.7055786457393,380.04742241588224,852.9231932591553,972.5340405143405,1182.0299819801398
1533057363.4060001,919.4093502336268,356.65743244206436,856.2050340283029,946.9407438771644,1050.9849578897592
1533057363.41,882.3502078116529,346.91426426355076,847.1795518106418,915.8663784458361,639.5033675412476
1533057363.414,928.2350207811653,346.91426426355076,870.9741576944774,912.2085886836182,770.5483916316281
1533057363.418,970.5888427085216,356.65743244206436,872.2050580341603,956.0833463329842,1064.0873132516263
1533057363.4220002,928.2350207811653,374.1999249224278,861.5386554319253,950.5985336393823,988.081843393357
1533057363.426,914.1182848439477,405.38125626636383,862.3586955217073,945.1137209457803,946.1500121410405
1533057363.429,907.0563027596355,420.9759134041977,845.127771176167,921.3474472399884,1032.638439812389
1533057363.4329998,954.7048041923742,419.0240865958023,840.2050100224454,908.55454282085,1014.2919217350186
1533057363.437,1018.233730025557,403.43342092383426,845.9486514709589,963.3951819579703,754.8212711030454
1533057363.441,998.8223145829569,383.9430931009413,846.3586715158499,965.2222048893544,878.0027349291347
1533057363.445,982.9418901825128,387.84275525186627,841.4359103621283,941.459675083012,969.7353253159865
1533057363.449,952.9411157291479,378.09559560748687,834.871388618823,934.1440955585764,935.6670543279614
1533057363.4529998,963.5268606242095,350.80993494860985,844.307731086385,917.6934013772202,767.9289940828403
1533057363.457,1027.0594005730954,358.60925925045973,851.6922929194724,939.6289082521783,710.2646746840135
1533057363.461,997.0586261197304,362.5049299355188,845.9486514709589,950.5985336393823,817.7243855994479
1533057363.465,933.5297002865477,317.6807682621443,851.6922929194724,910.3815657522341,919.9399337993789
1533057363.468,896.470557864574,311.83327076868983,843.8977110414942,861.0219954092662,1108.6439096706583
1533057363.4720001,917.6456617704004,346.91426426355076,849.2304922401066,851.883136852896,1171.5470241670607
1533057363.476,988.2329555721919,350.80993494860985,866.051396540756,884.788269115058,935.6670543279614
1533057363.48,977.6472106771304,343.0146021126259,854.5641136437291,895.7578945022619,1077.195036231421
1533057363.484,919.4093502336268,341.0667667700963,848.4104521503247,871.99162079647,1155.819903638478
1533057363.488,878.8228308852002,344.96642892102125,831.9995678945663,835.4286987720901,1140.0927831098957
1533057363.492,887.6448873170353,350.80993494860985,821.7431853372223,818.9780045907338,917.3205362505911
1533057363.496,965.2941632031391,335.21926927664185,845.127771176167,857.3679495464979,1014.2919217350186
1533057363.5,974.1162196349743,335.21926927664185,840.2050100224454,884.788269115058,1286.8649277288587
1533057363.504,917.6456617704004,356.65743244206436,838.9741096827626,857.3679495464979,904.2128132707963
1533057363.508,873.5281513798177,366.40459208644376,839.7949899775546,817.1472377599001,909.4569759862998
1533057363.5110002,889.4121898959651,356.65743244206436,832.8204481893582,820.8050275221179,1155.819903638478
1533057363.515,972.352531171748,348.86209960608033,847.9995919004238,870.1645978650859,988.081843393357
1533057363.519,965.2941632031391,358.60925925045973,847.5895718555328,888.4423149778263,720.7476324970926
1533057363.5229998,901.7652373699564,350.80993494860985,838.1540695929807,897.5849174336461,760.065433818549
1533057363.5270002,862.9387923690529,337.16710461917137,831.1795278047844,859.1949724778821,796.7584699732897
1533057363.5310001,854.1167359372176,348.86209960608033,836.5123090033968,798.8695206471598,880.6275000958503
1533057363.535,921.1766528125564,352.7617617570053,852.1023129643633,822.6320504535021,925.1787288969546
1533057363.539,951.1738131502182,339.1189314275668,846.3586715158499,868.3338310342522,1048.3655603409716
1533057363.543,889.4121898959651,331.32359859158277,847.1795518106418,868.3338310342522,1168.9276266182728
1533057363.5470002,848.8220564318352,331.32359859158277,846.7686915607409,848.2253470906782,1166.3028614515572
1533057363.551,857.6477269793737,329.3717717831874,826.6667866959538,826.2898402157199,1009.0477590195151
1533057363.554,926.471332317939,344.96642892102125,843.4868507915932,857.3679495464979,1116.5074699349495
1533057363.5579998,981.1745876035832,356.65743244206436,854.5641136437291,910.3815657522341,914.6957710838755
1533057363.562,940.5880682551566,364.4527652780484,866.051396540756,921.3474472399884,791.5143072577862
1533057363.566,877.0591424219738,364.4527652780484,865.230516245964,893.9271276714283,938.2864518767493
1533057363.57,845.2946795053824,346.91426426355076,853.3332133040462,831.7746529093218,809.8608253351566
1533057363.574,915.881973307174,346.91426426355076,862.3586955217073,835.4286987720901,938.2864518767493
1533057363.5779998,968.8215401295919,346.91426426355076,861.5386554319253,893.9271276714283,854.4174217541887
1533057363.582,929.9987092443916,333.2714339341123,860.7177751371335,903.069730127248,736.4747530256751
1533057363.586,892.9395668224179,327.4239364406578,858.2559744577677,871.99162079647,1011.6725241862308
1533057363.59,873.5281513798177,327.4239364406578,864.4104761561821,842.7405343970762,1085.0585964957122
1533057363.593,903.5289258331827,331.32359859158277,885.743281360652,842.7405343970762,1161.0640663539816
1533057363.5970001,944.1154451816093,323.5242742897329,879.1795998223566,888.4423149778263,1166.3028614515572
1533057363.601,910.5872938017916,339.1189314275668,861.1277951820244,886.6152920464422,676.1964036959884
1533057363.605,862.9387923690529,344.96642892102125,878.7687395724557,837.2594656029238,830.8267409613148
1533057363.609,850.5857448950616,325.4761010981283,873.4359583738432,818.9780045907338,1050.9849578897592
1533057363.613,885.881198853809,321.57643894720337,866.4614165856469,818.9780045907338,804.6166626196532
1533057363.617,938.8243797919301,331.32359859158277,867.6923169253298,848.2253470906782,922.5593313481667
1533057363.621,924.7040297390092,333.2714339341123,851.6922929194724,882.9612461836739,1071.9508735159175
1533057363.625,889.4121898959651,321.57643894720337,850.4613925797895,888.4423149778263,995.9454036576482
1533057363.629,848.8220564318352,325.4761010981283,848.8204721952156,844.5713012279099,1320.9385663348116
1533057363.633,861.1751039058265,307.9336086177649,849.2304922401066,811.6661689657478,1433.6370723478217
1533057363.6360002,933.5297002865477,300.13827578178086,865.230516245964,848.2253470906782,1108.6439096706583
1533057363.64,924.7040297390092,323.5242742897329,870.5641376495865,868.3338310342522,1030.0190422636012
1533057363.644,880.5865193484266,329.3717717831874,863.1795758164992,846.398324159294,1066.712078418342
1533057363.6479998,862.9387923690529,331.32359859158277,849.2304922401066,815.320214828516,982.8430482957813
1533057363.6520002,884.1175103905827,329.3717717831874,847.9995919004238,813.4931918971319,744.3383132899664
1533057363.6560001,935.2933887497741,331.32359859158277,863.1795758164992,857.3679495464979,746.9577108387542
1533057363.66,931.762397707618,333.2714339341123,855.795013983412,879.3034564214561,948.7694096898283
1533057363.664,907.0563027596355,348.86209960608033,851.2822728745814,866.5068081028681,781.0313494447072
1533057363.668,885.881198853809,362.5049299355188,848.8204721952156,844.5713012279099,642.1227650900354
1533057363.6720002,892.9395668224179,346.91426426355076,845.127771176167,829.9438860784882,956.6329699541196
1533057363.676,944.1154451816093,319.6286036046738,856.6150540731938,861.0219954092662,1043.121397625468
1533057363.679,956.4684926556006,331.32359859158277,858.6668347076687,892.1001047400441,600.1909338377191
1533057363.6829998,921.1766528125564,352.7617617570053,870.9741576944774,879.3034564214561,686.6793615090675
1533057363.687,894.7032552856442,354.7095970995348,861.5386554319253,844.5713012279099,993.3260061088604
1533057363.691,914.1182848439477,372.2520895798982,859.4868747974506,829.9438860784882,967.1159277671987
1533057363.695,986.4692671089656,389.7905905943958,874.2559984636251,873.8186437278541,600.1909338377191
1533057363.699,1019.9974184887833,407.3330830747592,858.6668347076687,934.1440955585764,335.47612049024235
1533057363.7029998,974.1162196349743,413.17658910234786,860.7177751371335,939.6289082521783,786.2755121602106
1533057363.707,921.1766528125564,395.63808808785024,863.5895958613902,904.8967530586322,1082.4338313289966
1533057363.711,933.5297002865477,389.7905905943958,848.8204721952156,888.4423149778263,1155.819903638478
1533057363.715,991.763946614348,399.5337587729093,863.1795758164992,919.5204243086043,1056.223752987335
1533057363.718,1011.1753620569482,413.17658910234786,871.3841777393684,961.5681590265862,977.5988855802779
1533057363.7220001,979.4108991403567,419.0240865958023,856.6150540731938,963.3951819579703,1255.4160542896213
1533057363.726,926.471332317939,411.2287537598183,838.9741096827626,939.6289082521783,977.5988855802779
1533057363.73,914.1182848439477,420.9759134041977,850.0513725348985,915.8663784458361,529.4242590770253
1533057363.734,991.763946614348,420.9759134041977,879.1795998223566,934.1440955585764,933.0422891612458
1533057363.738,1039.4124480470869,409.2809184172888,866.8714366305378,970.7070175829564,1140.0927831098957
1533057363.742,990.0002581511217,409.2809184172888,850.4613925797895,974.3648073451742,1145.336945825399
1533057363.746,942.351756718383,405.38125626636383,861.9486754768163,954.2563234016001,1247.5524940253301
1533057363.75,935.2933887497741,411.2287537598183,847.1795518106418,935.9748623894101,1040.5020000766804
1533057363.754,984.7055786457393,420.9759134041977,850.4613925797895,948.7715107079981,985.4624458445692
1533057363.758,1030.5867774995481,419.0240865958023,852.5123330092542,994.4732912887482,909.4569759862998
1533057363.7610002,998.8223145829569,420.9759134041977,856.2050340283029,988.9884785951463,718.1282349483047
1533057363.765,952.9411157291479,426.81941943178634,873.8459784187341,952.4255565707664,1050.9849578897592
1533057363.769,922.9403412757829,415.12841591074323,859.0768547525596,917.6934013772202,1153.2005060896904
1533057363.7729998,965.2941632031391,413.17658910234786,866.051396540756,926.8322599335903,838.690301225606
1533057363.7770002,1021.764721067713,407.3330830747592,879.5896198672476,970.7070175829564,993.3260061088604
1533057363.7810001,1004.1169940883393,389.7905905943958,854.5641136437291,979.8458761393265,1037.8772349099645
1533057363.785,965.2941632031391,395.63808808785024,854.1540935988381,967.0492278207386,539.9072168901045
1533057363.789,940.5880682551566,419.0240865958023,856.6150540731938,928.663026764424,644.7421626388232
1533057363.793,982.9418901825128,432.6669169252408,854.5641136437291,914.0356116150024,906.8322108195841
1533057363.7970002,1049.9981929421483,426.81941943178634,864.8204962010731,988.9884785951463,1050.9849578897592
1533057363.801,1037.6451454681571,428.7712462401817,855.384153733511,1014.5817752323223,1250.1718915741178
1533057363.804,984.7055786457393,442.4140765696202,847.5895718555328,974.3648073451742,1213.4788554193772
1533057363.8079998,940.5880682551566,440.4622497612248,841.0258903172374,935.9748623894101,1079.814433780209
1533057363.812,958.2357952345303,426.81941943178634,844.307731086385,939.6289082521783,1077.195036231421
1533057363.816,1030.5867774995481,419.0240865958023,856.2050340283029,979.8458761393265,1242.3083313098266
1533057363.82,1023.5284095309394,420.9759134041977,851.6922929194724,999.9581039823502,1223.9618132324563
1533057363.824,959.9994836977567,420.9759134041977,845.5386314260679,983.5036659015443,959.2523675029074
1533057363.8279998,922.9403412757829,417.07625125327274,840.2050100224454,934.1440955585764,948.7694096898283
1533057363.832,938.8243797919301,411.2287537598183,847.9995919004238,904.8967530586322,1098.1609518575792
1533057363.836,997.0586261197304,397.5859234303798,869.3332373099037,934.1440955585764,1192.512939793219
1533057363.84,1005.8806825515657,385.89092844347084,851.2822728745814,959.7373921957525,838.690301225606
1533057363.843,968.8215401295919,383.9430931009413,854.1540935988381,945.1137209457803,584.4638133091364
1533057363.8470001,933.5297002865477,383.9430931009413,859.0768547525596,921.3474472399884,1037.8772349099645
1533057363.851,940.5880682551566,387.84275525186627,846.7686915607409,903.069730127248,828.207343412527
1533057363.855,1005.8806825515657,399.5337587729093,867.6923169253298,925.0052370022062,778.4119518959193
1533057363.859,1028.8230890363218,397.5859234303798,868.9232172650127,965.2222048893544,1134.8539880123199
1533057363.863,998.8223145829569,399.5337587729093,859.0768547525596,974.3648073451742,930.422891612458
1533057363.867,958.2357952345303,407.3330830747592,853.7432333489371,935.9748623894101,870.1391746648434
1533057363.871,951.1738131502182,420.9759134041977,860.7177751371335,925.0052370022062,822.9631806970235
1533057363.875,1009.4116735937217,434.6147522677703,885.3332613157611,956.0833463329842,739.0941505744629
1533057363.879,1032.3504659627747,436.56657907616574,882.8714606363952,978.0188532079425,749.5824760054699
1533057363.883,998.8223145829569,454.1050800906633,883.2823208862962,987.1614556637621,930.422891612458
1533057363.8860002,938.8243797919301,456.0569068990587,896.4105241678969,956.0833463329842,1085.0585964957122
1533057363.89,929.9987092443916,454.1050800906633,889.4359823797006,917.6934013772202,1027.3942770968856
1533057363.894,1012.9390505201745,471.6475725710267,893.9487234885312,945.1137209457803,933.0422891612458
1533057363.8979998,1058.8238634896868,473.59540791355624,891.8969428540564,1003.6121498451184,964.496530218411
1533057363.9020002,1019.9974184887833,471.6475725710267,890.6668827193836,1012.7547523009382,1061.4679157028384
1533057363.9060001,990.0002581511217,485.2904029004652,893.1278431937393,988.9884785951463,1027.3942770968856
1533057363.91,977.6472106771304,487.2382382429947,889.0251221297997,963.3951819579703,938.2864518767493
1533057363.914,1016.4700415623306,471.6475725710267,898.8714846422527,968.8799946515722,982.8430482957813
1533057363.918,1062.3512404161397,467.7479104201018,904.6151260907661,1009.0969625387204,959.2523675029074
1533057363.9220002,1041.1761365103132,463.8522397350427,902.5641856613014,1010.9239854701045,870.1391746648434
1533057363.925,990.0002581511217,465.8000750775722,898.4614645973618,979.8458761393265,995.9454036576482
1533057363.929,952.9411157291479,465.8000750775722,878.3587195275647,952.4255565707664,925.1787288969546
1533057363.9329998,1000.5860030461832,463.8522397350427,896.8205442127879,963.3951819579703,781.0313494447072
1533057363.937,1039.4124480470869,459.95257758411776,906.25604647534,988.9884785951463,951.3888072386162
1533057363.941,1009.4116735937217,459.95257758411776,884.9232412708701,970.7070175829564,1061.4679157028384
1533057363.945,984.7055786457393,471.6475725710267,886.9741817003348,967.0492278207386,1003.8089639219395
1533057363.949,963.5268606242095,479.4429054070107,882.0514205466134,943.2866980143962,1100.7803494063671
1533057363.9529998,1012.9390505201745,465.8000750775722,880.4105001620395,932.3170726271923,1258.0354518384092
1533057363.957,1067.6459199215221,454.1050800906633,880.4105001620395,985.3306888329284,1210.8594578705893
1533057363.961,1023.5284095309394,438.51441441869525,866.8714366305378,987.1614556637621,1050.9849578897592
1533057363.965,967.0578516663655,415.12841591074323,861.5386554319253,941.459675083012,1103.4051145730828
1533057363.968,924.7040297390092,411.2287537598183,865.6405362908549,908.55454282085,1375.9781205669226
1533057363.9720001,942.351756718383,405.38125626636383,873.0250981239423,901.2389632964143,1168.9276266182728
1533057363.976,1007.6443710147921,391.73842593692535,884.5123810209691,950.5985336393823,1074.5702710647054
1533057363.98,991.763946614348,397.5859234303798,863.1795758164992,972.5340405143405,1155.819903638478
1533057363.984,940.5880682551566,413.17658910234786,857.4359343679857,948.7715107079981,720.7476324970926
1533057363.988,926.471332317939,417.07625125327274,863.1795758164992,919.5204243086043,566.1172952317661
1533057363.992,961.763172160983,391.73842593692535,861.9486754768163,901.2389632964143,836.0709036768183
1533057363.996,1018.233730025557,376.1477602649573,870.1541176046956,943.2866980143962,812.4802228839444
1533057364.0,991.763946614348,374.1999249224278,881.2305402518215,970.7070175829564,1058.8485181540507
1533057364.004,937.0570772130005,376.1477602649573,872.6150780790513,952.4255565707664,1192.512939793219
1533057364.008,896.470557864574,374.1999249224278,852.1023129643633,915.8663784458361,875.3833373803468
1533057364.0110002,907.0563027596355,366.40459208644376,870.1541176046956,901.2389632964143,1032.638439812389
1533057364.015,990.0002581511217,385.89092844347084,888.6151020849087,943.2866980143962,1213.4788554193772
1533057364.019,979.4108991403567,383.9430931009413,868.1023369702208,970.7070175829564,1462.4665482382711
1533057364.0229998,931.762397707618,366.40459208644376,857.8459544128767,961.5681590265862,1263.2796145539126
1533057364.0270002,908.8236053385652,370.30026277150284,861.9486754768163,930.4900496958081,898.9740181732207
1533057364.0310001,903.5289258331827,376.1477602649573,858.2559744577677,906.7237759900163,741.7189157411785
1533057364.035,967.0578516663655,378.09559560748687,868.9232172650127,930.4900496958081,707.6452771352257
1533057364.039,967.0578516663655,368.3524274289733,857.4359343679857,954.2563234016001,1158.439301187266
1533057364.043,905.2926142964092,366.40459208644376,847.5895718555328,935.9748623894101,1551.5797410763353
1533057364.0470002,882.3502078116529,362.5049299355188,843.4868507915932,906.7237759900163,1150.5811085409025
1533057364.05,889.4121898959651,348.86209960608033,845.9486514709589,893.9271276714283,1092.9167891420757
1533057364.054,949.4101246869918,343.0146021126259,863.9996159062812,917.6934013772202,1305.211445806229
1533057364.0579998,984.7055786457393,350.80993494860985,858.2559744577677,952.4255565707664,859.6562168517643
1533057364.062,942.351756718383,354.7095970995348,857.4359343679857,946.9407438771644,1001.1895663731517
1533057364.066,903.5289258331827,368.3524274289733,863.9996159062812,919.5204243086043,961.8717650516953
1533057364.07,894.7032552856442,374.1999249224278,851.2822728745814,890.27308180866,854.4174217541887
1533057364.074,937.0570772130005,360.5570945929893,856.2050340283029,888.4423149778263,940.9058494255371
1533057364.0779998,988.2329555721919,344.96642892102125,857.8459544128767,943.2866980143962,935.6670543279614
1533057364.082,1004.1169940883393,329.3717717831874,845.9486514709589,1010.9239854701045,1092.9167891420757
1533057364.086,944.1154451816093,329.3717717831874,839.3841297276535,957.9103692643683,1011.6725241862308
1533057364.09,792.3514985672613,333.2714339341123,838.1540695929807,776.930269872752,1252.7966567408334
1533057364.093,776.4710741668173,319.6286036046738,845.9486514709589,718.4318409734138,1161.0640663539816
1533057364.0970001,831.1743294524615,325.4761010981283,856.2050340283029,767.7914113163818,1043.121397625468
1533057364.101,776.4710741668173,321.57643894720337,846.7686915607409,754.9947629977938,1064.0873132516263
1533057364.105,697.0581098174872,337.16710461917137,842.2559504519103,676.3878501548816,1009.0477590195151
1533057364.109,665.2936469008957,341.0667667700963,848.4104521503247,614.2316314933256,1037.8772349099645
1533057364.113,665.2936469008957,315.7289414537489,861.9486754768163,577.6724533683953,773.1677891804159
1533057364.117,720.0005163022433,339.1189314275668,860.3077550922425,614.2316314933256,854.4174217541887
1533057364.121,688.236053385652,356.65743244206436,839.7949899775546,590.4691016869832,1053.6043554385471
1533057364.125,608.8230890363219,348.86209960608033,845.5386314260679,522.8280703318254,1056.223752987335
1533057364.129,617.645145468157,354.7095970995348,838.5640896378717,542.9365542753994,977.5988855802779
1533057364.133,631.765495521078,343.0146021126259,841.8459304070193,530.1399059568114,925.1787288969546
1533057364.1360002,679.4103828381134,325.4761010981283,861.5386554319253,557.5639694248212,725.991795212596
1533057364.14,681.1740713013398,339.1189314275668,864.4104761561821,614.2316314933256,511.07774099965496
1533057364.144,621.1761365103131,344.96642892102125,868.1023369702208,610.5775856305573,752.2018735542576
1533057364.1479998,617.645145468157,343.0146021126259,854.97413368862,595.9501704811356,857.0368193029765
1533057364.1520002,704.116477786096,350.80993494860985,864.4104761561821,616.0586544247097,951.3888072386162
1533057364.1560001,808.2355370834086,350.80993494860985,883.2823208862962,669.0760145298955,1098.1609518575792
1533057364.16,822.3522730206263,385.89092844347084,882.0514205466134,718.4318409734138,901.5934157220086
1533057364.164,808.2355370834086,424.87158408925677,875.896918848199,729.4014663606177,817.7243855994479
1533057364.168,795.8824896094173,434.6147522677703,859.0768547525596,714.7777951106456,974.9794880314901
1533057364.1720002,824.1159614838526,440.4622497612248,856.2050340283029,716.6048180420297,1032.638439812389
1533057364.175,903.5289258331827,446.3097472546793,860.3077550922425,767.7914113163818,951.3888072386162
1533057364.179,928.2350207811653,442.4140765696202,839.7949899775546,817.1472377599001,828.207343412527
1533057364.1829998,898.2342463278003,430.7190815827112,845.127771176167,804.3505894413122,849.1732590386852
1533057364.187,862.9387923690529,415.12841591074323,860.7177751371335,789.72691819134,1043.121397625468
1533057364.191,880.5865193484266,413.17658910234786,848.8204721952156,795.211730884942,930.422891612458
1533057364.195,945.882747760539,415.12841591074323,854.1540935988381,829.9438860784882,940.9058494255371
1533057364.199,956.4684926556006,415.12841591074323,854.97413368862,866.5068081028681,862.2809820184799
1533057364.2029998,924.7040297390092,420.9759134041977,852.1023129643633,868.3338310342522,576.6002530448452
1533057364.207,889.4121898959651,428.7712462401817,844.307731086385,859.1949724778821,752.2018735542576
1533057364.211,912.3509822650179,446.3097472546793,846.3586715158499,862.8490183406503,1071.9508735159175
1533057364.215,1005.8806825515657,438.51441441869525,865.230516245964,901.2389632964143,828.207343412527
1533057364.218,1028.8230890363218,422.92374874672726,850.8714126246804,954.2563234016001,870.1391746648434
1533057364.2220001,968.8215401295919,413.17658910234786,839.7949899775546,956.0833463329842,993.3260061088604
1533057364.226,929.9987092443916,417.07625125327274,854.97413368862,923.1782140708222,909.4569759862998
1533057364.23,928.2350207811653,426.81941943178634,845.127771176167,903.069730127248,1126.9904277480287
1533057364.234,984.7055786457393,413.17658910234786,847.5895718555328,910.3815657522341,1286.8649277288587
1533057364.238,1019.9974184887833,405.38125626636383,842.2559504519103,943.2866980143962,1053.6043554385471
1533057364.242,977.6472106771304,417.07625125327274,840.2050100224454,946.9407438771644,804.6166626196532
1533057364.246,924.7040297390092,415.12841591074323,849.6405122849975,906.7237759900163,765.3042289161245
1533057364.25,907.0563027596355,411.2287537598183,844.307731086385,866.5068081028681,906.8322108195841
1533057364.254,959.9994836977567,415.12841591074323,853.7432333489371,890.27308180866,870.1391746648434
1533057364.2570002,981.1745876035832,409.2809184172888,854.1540935988381,937.8018853207942,893.7298554577172
1533057364.2610002,938.8243797919301,399.5337587729093,839.3841297276535,932.3170726271923,801.9972650708653
1533057364.265,907.0563027596355,389.7905905943958,847.9995919004238,912.2085886836182,655.2251204519023
1533057364.269,907.0563027596355,391.73842593692535,845.5386314260679,908.55454282085,883.2468976446381
1533057364.2729998,970.5888427085216,409.2809184172888,857.8459544128767,937.8018853207942,1347.1486446764732
1533057364.2770002,1005.8806825515657,401.48558558130475,862.7687155665983,963.3951819579703,1147.9563433741869
1533057364.2810001,970.5888427085216,397.5859234303798,856.2050340283029,972.5340405143405,760.065433818549
1533057364.285,935.2933887497741,407.3330830747592,860.3077550922425,957.9103692643683,988.081843393357
1533057364.289,921.1766528125564,407.3330830747592,847.5895718555328,921.3474472399884,1037.8772349099645
1533057364.293,958.2357952345303,415.12841591074323,856.6150540731938,912.2085886836182,762.6848313673368
1533057364.2970002,1005.8806825515657,417.07625125327274,876.3077790980999,965.2222048893544,673.5716385292727
1533057364.3,979.4108991403567,407.3330830747592,852.5123330092542,979.8458761393265,995.9454036576482
1533057364.304,912.3509822650179,403.43342092383426,839.3841297276535,932.3170726271923,1147.9563433741869
1533057364.3079998,878.8228308852002,397.5859234303798,844.717751131276,910.3815657522341,1100.7803494063671
1533057364.312,929.9987092443916,385.89092844347084,849.2304922401066,915.8663784458361,1058.8485181540507
1533057364.316,988.2329555721919,362.5049299355188,859.8977350473516,937.8018853207942,1085.0585964957122
1533057364.32,958.2357952345303,350.80993494860985,854.97413368862,939.6289082521783,972.3547228647743
1533057364.324,905.2926142964092,376.1477602649573,859.8977350473516,915.8663784458361,1022.1554819993099
1533057364.3279998,868.2334718744353,378.09559560748687,856.2050340283029,881.1304793528402,1090.297391593288
1533057364.332,899.9979347910266,366.40459208644376,860.3077550922425,888.4423149778263,1119.1268674837374
1533057364.336,984.7055786457393,348.86209960608033,866.8714366305378,932.3170726271923,1106.0245121218704
1533057364.34,975.8799080982006,346.91426426355076,854.97413368862,937.8018853207942,998.5648012064361
1533057364.343,922.9403412757829,346.91426426355076,858.2559744577677,914.0356116150024,1116.5074699349495
1533057364.3470001,885.881198853809,360.5570945929893,864.8204962010731,879.3034564214561,1265.8990121027005
1533057364.351,907.0563027596355,346.91426426355076,847.5895718555328,855.5371827156642,1106.0245121218704
1533057364.355,982.9418901825128,337.16710461917137,852.5123330092542,881.1304793528402,980.2182831290656
1533057364.359,975.8799080982006,325.4761010981283,859.0768547525596,895.7578945022619,1074.5702710647054
1533057364.363,915.881973307174,313.78110611121934,856.6150540731938,875.6456666592383,694.5429217733587
1533057364.367,880.5865193484266,337.16710461917137,845.9486514709589,855.5371827156642,665.7134458829092
1533057364.371,898.2342463278003,354.7095970995348,847.1795518106418,846.398324159294,1106.0245121218704
1533057364.375,970.5888427085216,344.96642892102125,867.6923169253298,879.3034564214561,846.5538614898974
1533057364.379,977.6472106771304,327.4239364406578,860.3077550922425,917.6934013772202,801.9972650708653
1533057364.3820002,924.7040297390092,335.21926927664185,843.8977110414942,899.4119403650302,1006.4283614707273
1533057364.3860002,873.5281513798177,337.16710461917137,845.5386314260679,875.6456666592383,946.1500121410405
1533057364.39,861.1751039058265,341.0667667700963,849.2304922401066,850.0523700220623,817.7243855994479
1533057364.394,926.471332317939,337.16710461917137,865.6405362908549,846.398324159294,867.5197771160556
1533057364.3979998,947.6464362237654,339.1189314275668,868.9232172650127,888.4423149778263,1205.6152951550857
1533057364.4020002,894.7032552856442,352.7617617570053,858.6668347076687,877.4764334900719,1218.7230181348805
1533057364.4060001,854.1167359372176,352.7617617570053,854.97413368862,839.0864885343079,815.10498805066
1533057364.41,862.9387923690529,337.16710461917137,850.8714126246804,817.1472377599001,1061.4679157028384
1533057364.414,921.1766528125564,321.57643894720337,852.1023129643633,828.116863147104,1045.740795174256
1533057364.418,937.0570772130005,335.21926927664185,845.127771176167,868.3338310342522,712.8894398507291
1533057364.4220002,908.8236053385652,348.86209960608033,840.2050100224454,877.4764334900719,1103.4051145730828
1533057364.425,878.8228308852002,350.80993494860985,849.6405122849975,857.3679495464979,1103.4051145730828
1533057364.429,871.7644629165914,348.86209960608033,842.2559504519103,842.7405343970762,912.0763735350876
1533057364.4329998,942.351756718383,339.1189314275668,860.3077550922425,871.99162079647,728.6111927613838
1533057364.437,988.2329555721919,335.21926927664185,876.7177991429909,934.1440955585764,807.2414277863688
1533057364.441,961.763172160983,343.0146021126259,868.5123570151117,928.663026764424,1163.6834639027695
1533057364.445,922.9403412757829,356.65743244206436,879.9996399121386,893.9271276714283,775.7871867292037
1533057364.449,882.3502078116529,346.91426426355076,868.1023369702208,877.4764334900719,812.4802228839444
1533057364.4529998,910.5872938017916,337.16710461917137,861.9486754768163,886.6152920464422,1202.995897606298
1533057364.457,977.6472106771304,341.0667667700963,864.8204962010731,934.1440955585764,1271.143174818204
1533057364.461,949.4101246869918,335.21926927664185,854.5641136437291,939.6289082521783,1294.7284879931499
1533057364.465,898.2342463278003,339.1189314275668,854.97413368862,910.3815657522341,1517.5061024703823
1533057364.468,864.7060949479826,352.7617617570053,843.4868507915932,866.5068081028681,1412.6711567216635
1533057364.4720001,896.470557864574,358.60925925045973,845.9486514709589,857.3679495464979,1137.4733855611078
1533057364.476,1014.7063530991043,374.1999249224278,852.1023129643633,937.8018853207942,977.5988855802779
1533057364.48,1000.5860030461832,366.40459208644376,852.5123330092542,937.8018853207942,801.9972650708653
1533057364.484,848.8220564318352,346.91426426355076,866.051396540756,829.9438860784882,665.7134458829092
1533057364.488,801.1771691147998,337.16710461917137,868.5123570151117,786.0728723285717,657.8498856186179
1533057364.492,875.2918398430442,329.3717717831874,870.9741576944774,800.6965435785439,1032.638439812389
1533057364.496,937.0570772130005,341.0667667700963,878.7687395724557,813.4931918971319,935.6670543279614
1533057364.5,901.7652373699564,337.16710461917137,874.2559984636251,833.601675840706,791.5143072577862
1533057364.504,836.4690089578439,311.83327076868983,866.051396540756,809.8354021349141,904.2128132707963
1533057364.5070002,801.1771691147998,313.78110611121934,853.3332133040462,751.336973235576,893.7298554577172
1533057364.5110002,817.0575935152439,329.3717717831874,858.6668347076687,749.5099503041919,972.3547228647743
1533057364.515,892.9395668224179,341.0667667700963,870.9741576944774,808.00837920353,1229.2059759479596
1533057364.519,917.6456617704004,354.7095970995348,871.7950379892694,873.8186437278541,1210.8594578705893
1533057364.5229998,885.881198853809,360.5570945929893,865.230516245964,882.9612461836739,1098.1609518575792
1533057364.5270002,850.5857448950616,348.86209960608033,853.7432333489371,850.0523700220623,998.5648012064361
1533057364.5310001,864.7060949479826,331.32359859158277,853.3332133040462,861.0219954092662,610.6738916507982
1533057364.535,938.8243797919301,333.2714339341123,859.4868747974506,917.6934013772202,715.5088373995169
1533057364.539,933.5297002865477,323.5242742897329,840.2050100224454,952.4255565707664,1061.4679157028384
1533057364.543,882.3502078116529,337.16710461917137,840.2050100224454,948.7715107079981,820.3437831482357
1533057364.5470002,864.7060949479826,387.84275525186627,859.4868747974506,923.1782140708222,901.5934157220086
1533057364.55,875.2918398430442,389.7905905943958,856.2050340283029,901.2389632964143,1129.6098252968166
1533057364.554,951.1738131502182,393.6902527453207,865.6405362908549,914.0356116150024,649.9863253543267
1533057364.5579998,990.0002581511217,403.43342092383426,862.7687155665983,959.7373921957525,539.9072168901045
1533057364.562,951.1738131502182,374.1999249224278,852.1023129643633,957.9103692643683,980.2182831290656
1533057364.566,922.9403412757829,385.89092844347084,849.2304922401066,926.8322599335903,1009.0477590195151
1533057364.57,928.2350207811653,407.3330830747592,845.127771176167,906.7237759900163,1085.0585964957122
1533057364.574,1004.1169940883393,397.5859234303798,852.9231932591553,943.2866980143962,993.3260061088604
1533057364.5779998,1034.1177685417042,401.48558558130475,855.795013983412,988.9884785951463,967.1159277671987
1533057364.582,963.5268606242095,385.89092844347084,862.7687155665983,930.4900496958081,1336.665686863394
1533057364.586,924.7040297390092,374.1999249224278,878.3587195275647,899.4119403650302,1260.654849387197
1533057364.589,922.9403412757829,381.99525775841175,874.2559984636251,886.6152920464422,1100.7803494063671
1533057364.593,967.0578516663655,376.1477602649573,886.564161655444,903.069730127248,933.0422891612458
1533057364.5970001,998.8223145829569,393.6902527453207,898.8714846422527,952.4255565707664,883.2468976446381
1533057364.601,965.2941632031391,417.07625125327274,885.743281360652,943.2866980143962,998.5648012064361
1533057364.605,907.0563027596355,403.43342092383426,873.8459784187341,908.55454282085,681.4351987935639
1533057364.609,889.4121898959651,401.48558558130475,872.2050580341603,882.9612461836739,880.6275000958503
1533057364.613,949.4101246869918,415.12841591074323,882.0514205466134,899.4119403650302,1226.586578399172
1533057364.617,995.2913235408008,401.48558558130475,877.1278191878819,930.4900496958081,1006.4283614707273
1533057364.621,956.4684926556006,389.7905905943958,869.3332373099037,934.1440955585764,912.0763735350876
1533057364.625,919.4093502336268,380.04742241588224,864.8204962010731,917.6934013772202,940.9058494255371
1533057364.629,903.5289258331827,378.09559560748687,852.9231932591553,893.9271276714283,998.5648012064361
1533057364.6320002,951.1738131502182,411.2287537598183,861.9486754768163,926.8322599335903,1061.4679157028384
1533057364.6360002,1014.7063530991043,403.43342092383426,872.6150780790513,983.5036659015443,995.9454036576482
1533057364.64,988.2329555721919,364.4527652780484,857.4359343679857,978.0188532079425,1103.4051145730828
1533057364.644,926.471332317939,362.5049299355188,856.6150540731938,923.1782140708222,909.4569759862998
1533057364.6479998,894.7032552856442,364.4527652780484,853.3332133040462,884.788269115058,647.3669278055389
1533057364.6520002,940.5880682551566,372.2520895798982,863.1795758164992,890.27308180866,621.1568494638772
1533057364.6560001,1000.5860030461832,389.7905905943958,889.0251221297997,963.3951819579703,972.3547228647743
1533057364.66,998.8223145829569,399.5337587729093,874.2559984636251,1014.5817752323223,1239.6889337610387
1533057364.664,979.4108991403567,401.48558558130475,857.8459544128767,985.3306888329284,930.422891612458
1533057364.668,952.9411157291479,401.48558558130475,862.3586955217073,952.4255565707664,712.8894398507291
1533057364.6720002,965.2941632031391,393.6902527453207,883.2823208862962,948.7715107079981,930.422891612458
1533057364.675,1042.9398249735395,391.73842593692535,898.8714846422527,994.4732912887482,1292.109090444362
1533057364.679,1039.4124480470869,393.6902527453207,873.8459784187341,1025.5514006195262,930.422891612458
1533057364.6829998,979.4108991403567,391.73842593692535,873.4359583738432,1003.6121498451184,767.9289940828403
1533057364.687,944.1154451816093,395.63808808785024,889.8460024245916,956.0833463329842,655.2251204519023
1533057364.691,956.4684926556006,391.73842593692535,889.4359823797006,956.0833463329842,801.9972650708653
1533057364.695,1004.1169940883393,376.1477602649573,899.6923649370447,994.4732912887482,1179.410584431352
1533057364.699,1002.353305625113,372.2520895798982,882.4614405915044,1010.9239854701045,901.5934157220086
1533057364.7029998,938.8243797919301,374.1999249224278,873.8459784187341,987.1614556637621,788.8949097089984
1533057364.707,901.7652373699564,372.2520895798982,869.3332373099037,952.4255565707664,1022.1554819993099
1533057364.711,922.9403412757829,372.2520895798982,869.7432573547945,937.8018853207942,1087.6779940445
1533057364.714,995.2913235408008,366.40459208644376,882.8714606363952,974.3648073451742,1092.9167891420757
1533057364.718,1007.6443710147921,370.30026277150284,877.5386794377828,1027.3784235509104,995.9454036576482
1533057364.7220001,942.351756718383,381.99525775841175,870.5641376495865,981.6766429701602,1116.5074699349495
1533057364.726,905.2926142964092,368.3524274289733,864.8204962010731,923.1782140708222,1092.9167891420757
1533057364.73,912.3509822650179,358.60925925045973,852.5123330092542,937.8018853207942,967.1159277671987
1533057364.734,952.9411157291479,354.7095970995348,860.3077550922425,946.9407438771644,1035.2578373611768
1533057364.738,1005.8806825515657,368.3524274289733,852.1023129643633,983.5036659015443,1200.3765000575102
1533057364.742,986.4692671089656,395.63808808785024,845.127771176167,1003.6121498451184,1079.814433780209
1533057364.746,947.6464362237654,401.48558558130475,846.7686915607409,978.0188532079425,896.349253006505
1533057364.75,958.2357952345303,411.2287537598183,848.8204721952156,968.8799946515722,1037.8772349099645
1533057364.754,1032.3504659627747,419.0240865958023,861.1277951820244,983.5036659015443,754.8212711030454
1533057364.7570002,1071.1769109636782,409.2809184172888,859.8977350473516,1018.2358210950906,456.0381867675438
1533057364.7610002,1012.9390505201745,374.1999249224278,852.9231932591553,994.4732912887482,639.5033675412476
1533057364.765,979.4108991403567,366.40459208644376,863.1795758164992,961.5681590265862,610.6738916507982
1533057364.769,949.4101246869918,395.63808808785024,861.9486754768163,954.2563234016001,665.7134458829092
1533057364.7729998,986.4692671089656,385.89092844347084,878.3587195275647,970.7070175829564,917.3205362505911
1533057364.7770002,1034.1177685417042,380.04742241588224,880.4105001620395,992.6425244579145,1195.1323373420066
1533057364.7810001,990.0002581511217,383.9430931009413,861.1277951820244,990.8155015265304,1255.4160542896213
1533057364.785,938.8243797919301,387.84275525186627,860.7177751371335,978.0188532079425,1195.1323373420066
1533057364.789,896.470557864574,397.5859234303798,852.5123330092542,935.9748623894101,733.8553554768873
1533057364.793,947.6464362237654,393.6902527453207,866.051396540756,919.5204243086043,361.6861988319041
1533057364.7970002,1002.353305625113,401.48558558130475,876.7177991429909,961.5681590265862,833.4515061280305
1533057364.8,968.8215401295919,409.2809184172888,869.3332373099037,990.8155015265304,880.6275000958503
1533057364.804,945.882747760539,419.0240865958023,868.1023369702208,979.8458761393265,980.2182831290656
1533057364.8079998,910.5872938017916,407.3330830747592,868.5123570151117,937.8018853207942,1229.2059759479596
1533057364.812,945.882747760539,380.04742241588224,883.2823208862962,934.1440955585764,1213.4788554193772
1533057364.816,1016.4700415623306,403.43342092383426,883.2823208862962,968.8799946515722,1014.2919217350186
1533057364.82,995.2913235408008,422.92374874672726,858.6668347076687,988.9884785951463,951.3888072386162
1533057364.824,940.5880682551566,401.48558558130475,858.2559744577677,974.3648073451742,1043.121397625468
1533057364.8279998,905.2926142964092,393.6902527453207,860.3077550922425,948.7715107079981,919.9399337993789
1533057364.832,963.5268606242095,399.5337587729093,855.795013983412,941.459675083012,946.1500121410405
1533057364.836,1025.2920979941657,401.48558558130475,872.6150780790513,968.8799946515722,1176.7858192646363
1533057364.839,993.5276350775744,403.43342092383426,870.1541176046956,1005.4391727765026,851.7980242054008
1533057364.843,938.8243797919301,409.2809184172888,869.7432573547945,988.9884785951463,705.0258795864378
1533057364.8470001,889.4121898959651,393.6902527453207,865.230516245964,948.7715107079981,1158.439301187266
1533057364.851,914.1182848439477,381.99525775841175,856.2050340283029,943.2866980143962,1276.3819699157796
1533057364.855,988.2329555721919,378.09559560748687,871.3841777393684,963.3951819579703,1016.9113192838064
1533057364.859,959.9994836977567,374.1999249224278,872.6150780790513,985.3306888329284,977.5988855802779
1533057364.863,898.2342463278003,372.2520895798982,877.1278191878819,970.7070175829564,1069.3314759671298
1533057364.867,875.2918398430442,370.30026277150284,873.4359583738432,915.8663784458361,1292.109090444362
1533057364.871,901.7652373699564,380.04742241588224,863.1795758164992,910.3815657522341,935.6670543279614
1533057364.875,975.8799080982006,393.6902527453207,881.6405602967124,967.0492278207386,534.6630541746009
1533057364.879,975.8799080982006,401.48558558130475,873.8459784187341,996.3003142201323,1108.6439096706583
1533057364.8820002,914.1182848439477,393.6902527453207,866.051396540756,985.3306888329284,1218.7230181348805
1533057364.8860002,877.0591424219738,385.89092844347084,874.2559984636251,952.4255565707664,812.4802228839444
1533057364.89,901.7652373699564,415.12841591074323,867.6923169253298,932.3170726271923,893.7298554577172
1533057364.894,968.8215401295919,405.38125626636383,873.0250981239423,963.3951819579703,1085.0585964957122
1533057364.8979998,968.8215401295919,385.89092844347084,858.2559744577677,998.1273371515165,1168.9276266182728
1533057364.9020002,919.4093502336268,391.73842593692535,841.4359103621283,948.7715107079981,1200.3765000575102
1533057364.9060001,889.4121898959651,389.7905905943958,841.4359103621283,919.5204243086043,1166.3028614515572
1533057364.91,898.2342463278003,413.17658910234786,844.717751131276,908.55454282085,990.7012409421448
1533057364.914,968.8215401295919,424.87158408925677,864.4104761561821,888.4423149778263,912.0763735350876
1533057364.918,995.2913235408008,411.2287537598183,863.9996159062812,934.1440955585764,885.8662951934259
1533057364.9220002,959.9994836977567,403.43342092383426,861.5386554319253,959.7373921957525,1056.223752987335
1533057364.925,907.0563027596355,419.0240865958023,856.6150540731938,939.6289082521783,1551.5797410763353
1533057364.929,892.9395668224179,419.0240865958023,846.7686915607409,910.3815657522341,1064.0873132516263
1533057364.9329998,942.351756718383,409.2809184172888,870.9741576944774,921.3474472399884,878.0027349291347
1533057364.937,952.9411157291479,403.43342092383426,880.8205202069305,972.5340405143405,1294.7284879931499
1533057364.941,928.2350207811653,409.2809184172888,860.7177751371335,976.1918302765583,1341.9044819609699
1533057364.945,887.6448873170353,403.43342092383426,843.4868507915932,935.9748623894101,1147.9563433741869
1533057364.949,868.2334718744353,393.6902527453207,850.8714126246804,901.2389632964143,1001.1895663731517
1533057364.9529998,938.8243797919301,401.48558558130475,870.5641376495865,926.8322599335903,1009.0477590195151
1533057364.957,1005.8806825515657,419.0240865958023,873.4359583738432,978.0188532079425,804.6166626196532
1533057364.961,981.1745876035832,434.6147522677703,854.97413368862,1003.6121498451184,922.5593313481667
1533057364.964,931.762397707618,426.81941943178634,861.9486754768163,954.2563234016001,912.0763735350876
1533057364.968,929.9987092443916,424.87158408925677,875.486898803308,919.5204243086043,961.8717650516953
1533057364.9720001,1000.5860030461832,413.17658910234786,879.5896198672476,956.0833463329842,1216.1036205860928
1533057364.976,1035.8814570049308,419.0240865958023,885.743281360652,976.1918302765583,1053.6043554385471
1533057364.98,981.1745876035832,417.07625125327274,874.2559984636251,981.6766429701602,846.5538614898974
1533057364.984,940.5880682551566,403.43342092383426,867.2822968804388,970.7070175829564,927.8034940636702
1533057364.988,907.0563027596355,401.48558558130475,872.2050580341603,926.8322599335903,959.2523675029074
1533057364.992,931.762397707618,405.38125626636383,882.0514205466134,934.1440955585764,843.9344639411096
1533057364.996,986.4692671089656,415.12841591074323,894.7687635783132,970.7070175829564,864.9003795672678
1533057365.0,959.9994836977567,424.87158408925677,870.5641376495865,970.7070175829564,1027.3942770968856
1533057365.004,915.881973307174,432.6669169252408,851.2822728745814,954.2563234016001,1155.819903638478
1533057365.0070002,882.3502078116529,409.2809184172888,855.795013983412,919.5204243086043,875.3833373803468
1533057365.0110002,919.4093502336268,422.92374874672726,859.4868747974506,897.5849174336461,697.1623193221466
1533057365.015,993.5276350775744,456.0569068990587,873.4359583738432,945.1137209457803,796.7584699732897
1533057365.019,972.352531171748,434.6147522677703,873.4359583738432,988.9884785951463,773.1677891804159
1533057365.0229998,919.4093502336268,419.0240865958023,861.9486754768163,950.5985336393823,967.1159277671987
1533057365.0270002,873.5281513798177,411.2287537598183,849.6405122849975,901.2389632964143,1019.536084450522
1533057365.0310001,887.6448873170353,411.2287537598183,863.9996159062812,897.5849174336461,1024.7748795480977
1533057365.035,970.5888427085216,415.12841591074323,880.4105001620395,914.0356116150024,825.5879458637392
1533057365.039,968.8215401295919,395.63808808785024,866.4614165856469,948.7715107079981,1006.4283614707273
1533057365.043,951.1738131502182,350.80993494860985,860.3077550922425,988.9884785951463,1297.3478855419378
1533057365.046,954.7048041923742,368.3524274289733,860.7177751371335,1005.4391727765026,985.4624458445692
1533057365.05,929.9987092443916,419.0240865958023,854.1540935988381,903.069730127248,1205.6152951550857
1533057365.054,963.5268606242095,417.07625125327274,859.4868747974506,855.5371827156642,1229.2059759479596
1533057365.0579998,1007.6443710147921,409.2809184172888,854.5641136437291,935.9748623894101,1132.2345904635322
1533057365.062,981.1745876035832,405.38125626636383,850.4613925797895,979.8458761393265,1153.2005060896904
1533057365.066,935.2933887497741,397.5859234303798,838.5640896378717,946.9407438771644,912.0763735350876
1533057365.07,961.763172160983,397.5859234303798,839.7949899775546,906.7237759900163,904.2128132707963
1533057365.074,1044.703513436766,387.84275525186627,866.8714366305378,948.7715107079981,801.9972650708653
1533057365.0779998,1081.7626558587397,374.1999249224278,861.5386554319253,1018.2358210950906,610.6738916507982
1533057365.082,1028.8230890363218,381.99525775841175,849.6405122849975,1012.7547523009382,841.309698774394
1533057365.086,1000.5860030461832,378.09559560748687,844.307731086385,978.0188532079425,1037.8772349099645
1533057365.089,1025.2920979941657,374.1999249224278,845.5386314260679,956.0833463329842,906.8322108195841
1533057365.093,1094.115703332731,403.43342092383426,875.076878758417,970.7070175829564,938.2864518767493
1533057365.0970001,1145.2915816919224,422.92374874672726,873.8459784187341,1040.1750718694984,1218.7230181348805
1533057365.101,1108.2324392699486,420.9759134041977,865.6405362908549,1043.8291177322667,1179.410584431352
1533057365.105,1046.4708160156956,417.07625125327274,868.9232172650127,988.9884785951463,933.0422891612458
1533057365.109,1030.5867774995481,401.48558558130475,863.5895958613902,954.2563234016001,969.7353253159865
1533057365.113,1079.9989673955133,405.38125626636383,877.5386794377828,952.4255565707664,995.9454036576482
1533057365.117,1104.705062343496,401.48558558130475,881.2305402518215,970.7070175829564,1176.7858192646363
1533057365.121,1064.114928879366,397.5859234303798,860.3077550922425,945.1137209457803,1284.2455301800708
1533057365.125,1023.5284095309394,401.48558558130475,862.3586955217073,919.5204243086043,1210.8594578705893
1533057365.129,997.0586261197304,391.73842593692535,858.6668347076687,886.6152920464422,956.6329699541196
1533057365.1320002,1035.8814570049308,397.5859234303798,868.5123570151117,871.99162079647,778.4119518959193
1533057365.1360002,1076.4679763533572,413.17658910234786,889.8460024245916,943.2866980143962,917.3205362505911
1533057365.14,1025.2920979941657,413.17658910234786,876.3077790980999,952.4255565707664,799.3778675220775
1533057365.144,977.6472106771304,405.38125626636383,877.1278191878819,895.7578945022619,788.8949097089984
1533057365.1479998,961.763172160983,405.38125626636383,874.6668587135262,897.5849174336461,660.4692831674058
1533057365.1520002,1005.8806825515657,403.43342092383426,885.743281360652,923.1782140708222,833.4515061280305
1533057365.1560001,1062.3512404161397,411.2287537598183,893.1278431937393,946.9407438771644,1234.4501386634631
1533057365.16,1016.4700415623306,422.92374874672726,876.3077790980999,946.9407438771644,778.4119518959193
1533057365.164,970.5888427085216,428.7712462401817,881.6405602967124,925.0052370022062,678.8158012447761
1533057365.168,928.2350207811653,426.81941943178634,877.1278191878819,877.4764334900719,1092.9167891420757
1533057365.171,970.5888427085216,428.7712462401817,877.1278191878819,857.3679495464979,1074.5702710647054
1533057365.175,1051.765495521078,432.6669169252408,884.5123810209691,925.0052370022062,830.8267409613148
1533057365.179,1018.233730025557,432.6669169252408,866.8714366305378,959.7373921957525,670.9522409804849
1533057365.1829998,991.763946614348,436.56657907616574,868.5123570151117,954.2563234016001,990.7012409421448
1533057365.187,1000.5860030461832,456.0569068990587,863.5895958613902,956.0833463329842,1058.8485181540507
1533057365.191,1012.9390505201745,456.0569068990587,862.3586955217073,945.1137209457803,864.9003795672678
1533057365.195,1069.4096083847485,442.4140765696202,882.4614405915044,976.1918302765583,922.5593313481667
1533057365.199,1051.765495521078,434.6147522677703,868.1023369702208,994.4732912887482,1140.0927831098957
1533057365.2029998,993.5276350775744,422.92374874672726,856.6150540731938,954.2563234016001,1273.7625723669917
1533057365.207,975.8799080982006,409.2809184172888,850.8714126246804,937.8018853207942,1090.297391593288
1533057365.211,1012.9390505201745,417.07625125327274,851.6922929194724,948.7715107079981,838.690301225606
1533057365.214,1071.1769109636782,428.7712462401817,875.486898803308,983.5036659015443,891.1104579089294
1533057365.218,1072.9405994269046,434.6147522677703,877.5386794377828,979.8458761393265,1126.9904277480287
1533057365.2220001,1000.5860030461832,440.4622497612248,858.2559744577677,987.1614556637621,1223.9618132324563
1533057365.226,954.7048041923742,430.7190815827112,833.6413284841501,943.2866980143962,993.3260061088604
1533057365.23,975.8799080982006,440.4622497612248,838.1540695929807,877.4764334900719,898.9740181732207
1533057365.234,1014.7063530991043,452.15724474813373,861.5386554319253,923.1782140708222,1050.9849578897592
1533057365.238,1000.5860030461832,444.36191191214976,850.0513725348985,988.9884785951463,754.8212711030454
1533057365.242,993.5276350775744,442.4140765696202,841.8459304070193,967.0492278207386,746.9577108387542
1533057365.246,965.2941632031391,428.7712462401817,837.7432093430797,926.8322599335903,846.5538614898974
1533057365.25,924.7040297390092,415.12841591074323,830.3586475099925,932.3170726271923,980.2182831290656
1533057365.254,993.5276350775744,417.07625125327274,853.3332133040462,957.9103692643683,1092.9167891420757
1533057365.2570002,1011.1753620569482,383.9430931009413,856.6150540731938,994.4732912887482,762.6848313673368
1533057365.2610002,981.1745876035832,364.4527652780484,853.3332133040462,978.0188532079425,749.5824760054699
1533057365.265,912.3509822650179,385.89092844347084,849.2304922401066,948.7715107079981,1058.8485181540507
1533057365.269,885.881198853809,370.30026277150284,832.8204481893582,932.3170726271923,1050.9849578897592
1533057365.2729998,947.6464362237654,366.40459208644376,848.8204721952156,932.3170726271923,833.4515061280305
1533057365.2770002,970.5888427085216,391.73842593692535,861.5386554319253,974.3648073451742,1014.2919217350186
1533057365.2810001,922.9403412757829,405.38125626636383,838.1540695929807,967.0492278207386,967.1159277671987
1533057365.285,873.5281513798177,411.2287537598183,845.127771176167,919.5204243086043,1019.536084450522
1533057365.289,841.7636884632263,401.48558558130475,849.2304922401066,886.6152920464422,1268.5184096514881
1533057365.293,917.6456617704004,397.5859234303798,849.2304922401066,897.5849174336461,1011.6725241862308
1533057365.296,965.2941632031391,399.5337587729093,855.795013983412,941.459675083012,948.7694096898283
1533057365.3,924.7040297390092,395.63808808785024,853.7432333489371,961.5681590265862,1161.0640663539816
1533057365.304,896.470557864574,399.5337587729093,857.4359343679857,943.2866980143962,1223.9618132324563
1533057365.3079998,880.5865193484266,405.38125626636383,855.384153733511,914.0356116150024,883.2468976446381
1533057365.312,931.762397707618,415.12841591074323,875.076878758417,925.0052370022062,1001.1895663731517
1533057365.316,995.2913235408008,399.5337587729093,882.8714606363952,992.6425244579145,1011.6725241862308
1533057365.32,1000.5860030461832,389.7905905943958,862.7687155665983,1009.0969625387204,867.5197771160556
1533057365.324,924.7040297390092,409.2809184172888,865.230516245964,954.2563234016001,1140.0927831098957
1533057365.3279998,841.7636884632263,424.87158408925677,862.3586955217073,862.8490183406503,1022.1554819993099
1533057365.332,899.9979347910266,422.92374874672726,863.5895958613902,886.6152920464422,775.7871867292037
1533057365.336,970.5888427085216,393.6902527453207,880.4105001620395,968.8799946515722,875.3833373803468
1533057365.339,928.2350207811653,366.40459208644376,873.4359583738432,988.9884785951463,1328.8021265991028
1533057365.343,885.881198853809,362.5049299355188,858.2559744577677,945.1137209457803,1171.5470241670607
1533057365.3470001,884.1175103905827,358.60925925045973,857.8459544128767,903.069730127248,1009.0477590195151
1533057365.351,915.881973307174,370.30026277150284,874.6668587135262,928.663026764424,969.7353253159865
1533057365.355,970.5888427085216,380.04742241588224,884.9232412708701,965.2222048893544,946.1500121410405
1533057365.359,967.0578516663655,405.38125626636383,876.7177991429909,972.5340405143405,1011.6725241862308
1533057365.363,949.4101246869918,419.0240865958023,866.051396540756,965.2222048893544,990.7012409421448
1533057365.367,919.4093502336268,399.5337587729093,849.6405122849975,932.3170726271923,851.7980242054008
1533057365.371,944.1154451816093,403.43342092383426,853.7432333489371,937.8018853207942,825.5879458637392
1533057365.375,1028.8230890363218,403.43342092383426,880.4105001620395,965.2222048893544,1069.3314759671298
1533057365.3779998,1012.9390505201745,397.5859234303798,867.6923169253298,974.3648073451742,1200.3765000575102
1533057365.3820002,944.1154451816093,391.73842593692535,853.3332133040462,937.8018853207942,1202.995897606298
1533057365.3860002,908.8236053385652,397.5859234303798,857.0259143230949,912.2085886836182,1108.6439096706583
1533057365.39,924.7040297390092,409.2809184172888,852.9231932591553,912.2085886836182,1003.8089639219395
1533057365.394,991.763946614348,389.7905905943958,868.5123570151117,925.0052370022062,880.6275000958503
1533057365.3979998,979.4108991403567,383.9430931009413,866.8714366305378,948.7715107079981,927.8034940636702
1533057365.4020002,931.762397707618,397.5859234303798,857.0259143230949,939.6289082521783,1142.7175482766113
1533057365.4060001,917.6456617704004,393.6902527453207,843.4868507915932,928.663026764424,1053.6043554385471
1533057365.41,919.4093502336268,372.2520895798982,834.871388618823,899.4119403650302,854.4174217541887
1533057365.414,993.5276350775744,350.80993494860985,848.8204721952156,925.0052370022062,833.4515061280305
1533057365.418,1011.1753620569482,364.4527652780484,855.384153733511,990.8155015265304,948.7694096898283
1533057365.421,967.0578516663655,381.99525775841175,861.1277951820244,1005.4391727765026,1129.6098252968166
1533057365.425,926.471332317939,368.3524274289733,873.4359583738432,961.5681590265862,1352.3874397740487
1533057365.429,954.7048041923742,374.1999249224278,862.3586955217073,919.5204243086043,1098.1609518575792
1533057365.4329998,1011.1753620569482,372.2520895798982,868.5123570151117,956.0833463329842,940.9058494255371
1533057365.437,977.6472106771304,343.0146021126259,868.1023369702208,981.6766429701602,925.1787288969546
1533057365.441,937.0570772130005,346.91426426355076,861.1277951820244,963.3951819579703,901.5934157220086
1533057365.445,919.4093502336268,362.5049299355188,875.076878758417,941.459675083012,1126.9904277480287
1533057365.449,914.1182848439477,364.4527652780484,868.9232172650127,904.8967530586322,917.3205362505911
1533057365.4529998,958.2357952345303,370.30026277150284,873.8459784187341,923.1782140708222,725.991795212596
1533057365.457,986.4692671089656,372.2520895798982,877.5386794377828,954.2563234016001,736.4747530256751
1533057365.461,951.1738131502182,376.1477602649573,866.4614165856469,967.0492278207386,647.3669278055389
1533057365.464,901.7652373699564,383.9430931009413,863.9996159062812,937.8018853207942,875.3833373803468
1533057365.468,885.881198853809,381.99525775841175,857.0259143230949,899.4119403650302,954.0135724053318
1533057365.4720001,944.1154451816093,370.30026277150284,869.7432573547945,917.6934013772202,930.422891612458
1533057365.476,979.4108991403567,374.1999249224278,879.5896198672476,939.6289082521783,904.2128132707963
1533057365.48,940.5880682551566,387.84275525186627,876.3077790980999,946.9407438771644,597.5661686710033
1533057365.484,885.881198853809,397.5859234303798,881.2305402518215,908.55454282085,778.4119518959193
1533057365.488,861.1751039058265,391.73842593692535,868.5123570151117,840.9135114656921,1108.6439096706583
1533057365.492,905.2926142964092,385.89092844347084,870.1541176046956,846.398324159294,909.4569759862998
1533057365.496,981.1745876035832,389.7905905943958,884.5123810209691,915.8663784458361,961.8717650516953
1533057365.5,961.763172160983,385.89092844347084,870.9741576944774,943.2866980143962,1258.0354518384092
1533057365.5029998,910.5872938017916,378.09559560748687,860.3077550922425,912.2085886836182,1061.4679157028384
1533057365.5070002,915.881973307174,368.3524274289733,860.7177751371335,882.9612461836739,799.3778675220775
1533057365.5110002,938.8243797919301,358.60925925045973,875.896918848199,886.6152920464422,1106.0245121218704
1533057365.515,986.4692671089656,348.86209960608033,893.9487234885312,939.6289082521783,1294.7284879931499
1533057365.519,975.8799080982006,341.0667667700963,878.3587195275647,981.6766429701602,1174.1664217158486
1533057365.5229998,915.881973307174,352.7617617570053,877.9486994826738,923.1782140708222,1331.4215241478908
1533057365.5270002,894.7032552856442,370.30026277150284,886.154141610553,870.1645978650859,1158.439301187266
1533057365.5310001,940.5880682551566,372.2520895798982,884.1023609760782,884.788269115058,1132.2345904635322
1533057365.535,995.2913235408008,360.5570945929893,886.154141610553,915.8663784458361,1077.195036231421
1533057365.539,975.8799080982006,356.65743244206436,877.9486994826738,923.1782140708222,922.5593313481667
1533057365.543,935.2933887497741,350.80993494860985,863.5895958613902,904.8967530586322,980.2182831290656
1533057365.546,905.2926142964092,346.91426426355076,854.97413368862,895.7578945022619,589.7026084067121
1533057365.55,940.5880682551566,350.80993494860985,869.7432573547945,884.788269115058,513.6971385484428
1533057365.554,1007.6443710147921,346.91426426355076,884.1023609760782,904.8967530586322,767.9289940828403
1533057365.5579998,1002.353305625113,364.4527652780484,875.486898803308,939.6289082521783,933.0422891612458
1533057365.562,965.2941632031391,380.04742241588224,873.8459784187341,912.2085886836182,1082.4338313289966
1533057365.566,938.8243797919301,378.09559560748687,878.3587195275647,890.27308180866,1050.9849578897592
1533057365.57,965.2941632031391,370.30026277150284,879.9996399121386,903.069730127248,1153.2005060896904
1533057365.574,1019.9974184887833,374.1999249224278,895.1796238282141,921.3474472399884,959.2523675029074
1533057365.5779998,982.9418901825128,378.09559560748687,888.6151020849087,926.8322599335903,749.5824760054699
1533057365.582,917.6456617704004,381.99525775841175,880.4105001620395,897.5849174336461,1161.0640663539816
1533057365.586,892.9395668224179,389.7905905943958,874.6668587135262,855.5371827156642,1242.3083313098266
1533057365.589,908.8236053385652,401.48558558130475,868.9232172650127,850.0523700220623,1166.3028614515572
1533057365.593,974.1162196349743,397.5859234303798,882.0514205466134,871.99162079647,951.3888072386162
1533057365.5970001,986.4692671089656,381.99525775841175,875.486898803308,877.4764334900719,833.4515061280305
1533057365.601,958.2357952345303,395.63808808785024,853.3332133040462,877.4764334900719,854.4174217541887
1533057365.605,914.1182848439477,387.84275525186627,861.5386554319253,850.0523700220623,977.5988855802779
1533057365.609,908.8236053385652,385.89092844347084,861.1277951820244,817.1472377599001,940.9058494255371
1533057365.613,970.5888427085216,378.09559560748687,871.3841777393684,839.0864885343079,678.8158012447761
1533057365.617,982.9418901825128,356.65743244206436,873.8459784187341,886.6152920464422,1161.0640663539816
1533057365.621,940.5880682551566,356.65743244206436,855.795013983412,886.6152920464422,1111.263307219446
1533057365.625,903.5289258331827,360.5570945929893,861.1277951820244,840.9135114656921,880.6275000958503
1533057365.6279998,887.6448873170353,356.65743244206436,855.795013983412,802.5235665099281,933.0422891612458
1533057365.6320002,933.5297002865477,360.5570945929893,859.4868747974506,817.1472377599001,888.4856927422138
1533057365.6360002,963.5268606242095,374.1999249224278,861.5386554319253,879.3034564214561,815.10498805066
1533057365.64,924.7040297390092,378.09559560748687,853.7432333489371,886.6152920464422,799.3778675220775
1533057365.644,891.1758783591914,378.09559560748687,841.0258903172374,837.2594656029238,830.8267409613148
1533057365.6479998,878.8228308852002,368.3524274289733,831.5895478496753,826.2898402157199,809.8608253351566
1533057365.6520002,942.351756718383,358.60925925045973,857.0259143230949,873.8186437278541,885.8662951934259
1533057365.6560001,1009.4116735937217,372.2520895798982,868.5123570151117,903.069730127248,891.1104579089294
1533057365.66,982.9418901825128,374.1999249224278,854.5641136437291,908.55454282085,854.4174217541887
1533057365.664,947.6464362237654,372.2520895798982,852.5123330092542,903.069730127248,1087.6779940445
1533057365.668,940.5880682551566,381.99525775841175,846.7686915607409,870.1645978650859,1009.0477590195151
1533057365.671,993.5276350775744,378.09559560748687,861.5386554319253,870.1645978650859,657.8498856186179
1533057365.675,1053.5291839843044,374.1999249224278,881.2305402518215,946.9407438771644,799.3778675220775
1533057365.679,1023.5284095309394,389.7905905943958,882.8714606363952,974.3648073451742,1255.4160542896213
1533057365.6829998,988.2329555721919,389.7905905943958,882.4614405915044,954.2563234016001,1192.512939793219
1533057365.687,968.8215401295919,393.6902527453207,882.4614405915044,928.663026764424,1090.297391593288
1533057365.691,1004.1169940883393,399.5337587729093,882.0514205466134,928.663026764424,1210.8594578705893
1533057365.695,1071.1769109636782,401.48558558130475,881.2305402518215,974.3648073451742,946.1500121410405
1533057365.699,1048.234504478922,399.5337587729093,877.5386794377828,1012.7547523009382,812.4802228839444
1533057365.7029998,967.0578516663655,389.7905905943958,881.2305402518215,998.1273371515165,1003.8089639219395
1533057365.707,898.2342463278003,372.2520895798982,872.6150780790513,926.8322599335903,1106.0245121218704
1533057365.71,926.471332317939,364.4527652780484,865.6405362908549,910.3815657522341,1035.2578373611768
1533057365.714,1009.4116735937217,374.1999249224278,881.6405602967124,968.8799946515722,857.0368193029765
1533057365.718,995.2913235408008,376.1477602649573,861.9486754768163,974.3648073451742,872.763939831559
1533057365.7220001,944.1154451816093,389.7905905943958,847.5895718555328,946.9407438771644,885.8662951934259
1533057365.726,924.7040297390092,428.7712462401817,875.076878758417,921.3474472399884,1077.195036231421
1533057365.73,968.8215401295919,444.36191191214976,873.8459784187341,917.6934013772202,930.422891612458
1533057365.734,1060.5875519529131,458.00474224158825,886.564161655444,972.5340405143405,615.9126867483737
1533057365.738,1037.6451454681571,469.69973722849716,886.154141610553,1014.5817752323223,969.7353253159865
1533057365.742,977.6472106771304,459.95257758411776,860.3077550922425,998.1273371515165,1045.740795174256
1533057365.746,945.882747760539,471.6475725710267,867.2822968804388,959.7373921957525,799.3778675220775
1533057365.75,942.351756718383,477.4950700644812,875.076878758417,934.1440955585764,851.7980242054008
1533057365.7529998,1018.233730025557,465.8000750775722,880.4105001620395,957.9103692643683,626.3956445614529
1533057365.7570002,1039.4124480470869,477.4950700644812,882.0514205466134,1005.4391727765026,799.3778675220775
1533057365.7610002,998.8223145829569,491.13790039391967,877.5386794377828,1014.5817752323223,1252.7966567408334
1533057365.765,961.763172160983,495.03357107897875,879.1795998223566,987.1614556637621,1410.0463915549478
1533057365.769,954.7048041923742,485.2904029004652,880.4105001620395,959.7373921957525,1216.1036205860928
1533057365.7729998,1007.6443710147921,461.90041292664733,904.6151260907661,970.7070175829564,1016.9113192838064
1533057365.7770002,1021.764721067713,434.6147522677703,897.2305642576789,979.8458761393265,995.9454036576482
1533057365.7810001,984.7055786457393,420.9759134041977,881.6405602967124,941.459675083012,954.0135724053318
1533057365.785,926.471332317939,419.0240865958023,881.6405602967124,899.4119403650302,985.4624458445692
1533057365.789,903.5289258331827,434.6147522677703,863.1795758164992,875.6456666592383,925.1787288969546
1533057365.793,988.2329555721919,434.6147522677703,875.076878758417,903.069730127248,964.496530218411
1533057365.796,1012.9390505201745,409.2809184172888,889.0251221297997,961.5681590265862,919.9399337993789
1533057365.8,940.5880682551566,395.63808808785024,873.4359583738432,970.7070175829564,995.9454036576482
1533057365.804,908.8236053385652,389.7905905943958,863.1795758164992,914.0356116150024,954.0135724053318
1533057365.8079998,912.3509822650179,383.9430931009413,859.0768547525596,888.4423149778263,909.4569759862998
1533057365.812,977.6472106771304,391.73842593692535,868.5123570151117,914.0356116150024,995.9454036576482
1533057365.816,1021.764721067713,387.84275525186627,876.3077790980999,957.9103692643683,1226.586578399172
1533057365.82,977.6472106771304,385.89092844347084,868.1023369702208,981.6766429701602,1195.1323373420066
1533057365.824,931.762397707618,385.89092844347084,868.9232172650127,945.1137209457803,896.349253006505
1533057365.8279998,919.4093502336268,362.5049299355188,865.6405362908549,903.069730127248,972.3547228647743
1533057365.832,981.1745876035832,372.2520895798982,869.7432573547945,921.3474472399884,739.0941505744629
1533057365.835,1046.4708160156956,397.5859234303798,881.6405602967124,974.3648073451742,812.4802228839444
1533057365.839,998.8223145829569,409.2809184172888,864.8204962010731,963.3951819579703,919.9399337993789
1533057365.843,938.8243797919301,419.0240865958023,853.3332133040462,895.7578945022619,862.2809820184799
1533057365.8470001,912.3509822650179,419.0240865958023,866.8714366305378,868.3338310342522,830.8267409613148
1533057365.851,928.2350207811653,401.48558558130475,869.7432573547945,884.788269115058,888.4856927422138
1533057365.855,970.5888427085216,395.63808808785024,869.7432573547945,919.5204243086043,1124.371030199241
1533057365.859,944.1154451816093,409.2809184172888,866.8714366305378,932.3170726271923,775.7871867292037
1533057365.863,899.9979347910266,395.63808808785024,862.3586955217073,912.2085886836182,1077.195036231421
1533057365.867,873.5281513798177,391.73842593692535,851.2822728745814,868.3338310342522,1533.2332229989647
1533057365.871,929.9987092443916,415.12841591074323,846.7686915607409,853.7101597842801,1092.9167891420757
1533057365.875,1004.1169940883393,428.7712462401817,859.8977350473516,886.6152920464422,694.5429217733587
1533057365.8779998,954.7048041923742,405.38125626636383,854.1540935988381,903.069730127248,922.5593313481667
1533057365.8820002,903.5289258331827,389.7905905943958,842.2559504519103,890.27308180866,1064.0873132516263
1533057365.8860002,889.4121898959651,378.09559560748687,838.9741096827626,868.3338310342522,988.081843393357
1533057365.89,929.9987092443916,368.3524274289733,844.307731086385,857.3679495464979,959.2523675029074
1533057365.894,993.5276350775744,381.99525775841175,869.7432573547945,904.8967530586322,1022.1554819993099
1533057365.8979998,959.9994836977567,389.7905905943958,862.3586955217073,946.9407438771644,1297.3478855419378
1533057365.9020002,903.5289258331827,381.99525775841175,846.3586715158499,893.9271276714283,1137.4733855611078
1533057365.9060001,866.4697834112089,374.1999249224278,863.1795758164992,835.4286987720901,851.7980242054008
1533057365.91,878.8228308852002,387.84275525186627,859.0768547525596,839.0864885343079,1273.7625723669917
1533057365.914,949.4101246869918,395.63808808785024,866.051396540756,881.1304793528402,1174.1664217158486
1533057365.918,928.2350207811653,389.7905905943958,868.5123570151117,915.8663784458361,922.5593313481667
1533057365.921,870.000774453365,380.04742241588224,854.5641136437291,875.6456666592383,974.9794880314901
1533057365.925,845.2946795053824,393.6902527453207,845.9486514709589,824.4628172843358,940.9058494255371
1533057365.929,866.4697834112089,413.17658910234786,834.0513485290411,839.0864885343079,1147.9563433741869
1533057365.9329998,947.6464362237654,401.48558558130475,852.1023129643633,870.1645978650859,951.3888072386162
1533057365.937,952.9411157291479,383.9430931009413,863.1795758164992,899.4119403650302,697.1623193221466
1533057365.941,907.0563027596355,372.2520895798982,853.3332133040462,895.7578945022619,838.690301225606
1533057365.945,885.881198853809,364.4527652780484,853.3332133040462,890.27308180866,998.5648012064361
1533057365.949,875.2918398430442,360.5570945929893,852.5123330092542,899.4119403650302,1048.3655603409716
1533057365.9529998,945.882747760539,366.40459208644376,875.486898803308,919.5204243086043,954.0135724053318
1533057365.957,979.4108991403567,380.04742241588224,882.8714606363952,963.3951819579703,791.5143072577862
1533057365.96,924.7040297390092,389.7905905943958,863.5895958613902,941.459675083012,707.6452771352257
1533057365.964,891.1758783591914,389.7905905943958,867.2822968804388,888.4423149778263,1030.0190422636012
1533057365.968,901.7652373699564,399.5337587729093,864.4104761561821,875.6456666592383,880.6275000958503
1533057365.9720001,972.352531171748,411.2287537598183,866.8714366305378,914.0356116150024,731.2359579280994
1533057365.976,1016.4700415623306,411.2287537598183,869.3332373099037,967.0492278207386,1024.7748795480977
1533057365.98,981.1745876035832,432.6669169252408,850.0513725348985,965.2222048893544,1166.3028614515572
1533057365.984,944.1154451816093,448.25758259720885,850.4613925797895,910.3815657522341,904.2128132707963
1533057365.988,933.5297002865477,442.4140765696202,861.5386554319253,864.679785171484,710.2646746840135
1533057365.992,991.763946614348,440.4622497612248,868.9232172650127,904.8967530586322,974.9794880314901
1533057365.996,1025.2920979941657,411.2287537598183,868.5123570151117,943.2866980143962,1106.0245121218704
1533057366.0,977.6472106771304,397.5859234303798,856.2050340283029,921.3474472399884,862.2809820184799
1533057366.0029998,922.9403412757829,403.43342092383426,852.1023129643633,893.9271276714283,870.1391746648434
1533057366.0070002,917.6456617704004,397.5859234303798,850.0513725348985,868.3338310342522,571.3560903293417
1533057366.0110002,959.9994836977567,389.7905905943958,868.9232172650127,888.4423149778263,725.991795212596
1533057366.015,993.5276350775744,380.04742241588224,880.8205202069305,952.4255565707664,1307.830843355017
1533057366.019,972.352531171748,376.1477602649573,872.6150780790513,961.5681590265862,1486.057229031145
1533057366.0229998,921.1766528125564,391.73842593692535,854.5641136437291,939.6289082521783,1174.1664217158486
1533057366.0270002,899.9979347910266,405.38125626636383,848.8204721952156,897.5849174336461,995.9454036576482
1533057366.0310001,940.5880682551566,407.3330830747592,862.3586955217073,893.9271276714283,1145.336945825399
1533057366.035,982.9418901825128,395.63808808785024,871.7950379892694,934.1440955585764,1145.336945825399
1533057366.039,972.352531171748,376.1477602649573,860.7177751371335,928.663026764424,1098.1609518575792
1533057366.043,944.1154451816093,362.5049299355188,854.5641136437291,901.2389632964143,1030.0190422636012
1533057366.046,933.5297002865477,378.09559560748687,850.4613925797895,897.5849174336461,883.2468976446381
1533057366.05,935.2933887497741,407.3330830747592,859.4868747974506,859.1949724778821,1129.6098252968166
1533057366.054,949.4101246869918,415.12841591074323,873.4359583738432,833.601675840706,1221.3424156836684
1533057366.0579998,937.0570772130005,407.3330830747592,854.1540935988381,877.4764334900719,982.8430482957813
1533057366.062,878.8228308852002,405.38125626636383,853.7432333489371,851.883136852896,830.8267409613148
1533057366.066,817.0575935152439,399.5337587729093,863.1795758164992,782.4150825663539,982.8430482957813
1533057366.07,829.410640989235,387.84275525186627,851.2822728745814,765.9643883849976,1048.3655603409716
1533057366.074,914.1182848439477,378.09559560748687,866.051396540756,818.9780045907338,796.7584699732897
1533057366.0779998,938.8243797919301,381.99525775841175,861.1277951820244,866.5068081028681,1050.9849578897592
1533057366.082,892.9395668224179,391.73842593692535,843.8977110414942,851.883136852896,1242.3083313098266
1533057366.085,845.2946795053824,395.63808808785024,858.2559744577677,839.0864885343079,1001.1895663731517
1533057366.089,864.7060949479826,376.1477602649573,867.6923169253298,866.5068081028681,733.8553554768873
1533057366.093,942.351756718383,356.65743244206436,873.4359583738432,888.4423149778263,731.2359579280994
1533057366.0970001,968.8215401295919,378.09559560748687,873.0250981239423,925.0052370022062,739.0941505744629
1533057366.101,919.4093502336268,385.89092844347084,865.6405362908549,935.9748623894101,702.4011144197221
1533057366.105,887.6448873170353,393.6902527453207,855.795013983412,915.8663784458361,739.0941505744629
1533057366.109,935.2933887497741,409.2809184172888,859.0768547525596,890.27308180866,1071.9508735159175
1533057366.113,1018.233730025557,403.43342092383426,866.4614165856469,914.0356116150024,1145.336945825399
1533057366.117,1021.764721067713,403.43342092383426,857.4359343679857,972.5340405143405,1106.0245121218704
1533057366.121,981.1745876035832,413.17658910234786,860.3077550922425,972.5340405143405,1053.6043554385471
1533057366.125,938.8243797919301,399.5337587729093,868.9232172650127,939.6289082521783,1043.121397625468
1533057366.1279998,937.0570772130005,387.84275525186627,863.5895958613902,899.4119403650302,1166.3028614515572
1533057366.1320002,981.1745876035832,370.30026277150284,872.2050580341603,919.5204243086043,1098.1609518575792
