timestamps,TP9,AF7,AF8,TP10,Right AUX
1533058410.339,935.1770058817001,685.5568480989408,872.0078598355998,1095.369578497251,1199.1489577265013
1533058410.343,937.9340402134765,705.6504010285925,866.2628162543322,1088.9488275926883,810.3138218383526
1533058410.3470001,827.5905206767486,680.5373170881038,869.9564187323414,950.8237394859265,483.8114536105975
1533058410.351,844.1383763279224,655.4242331476153,872.0078598355998,915.4898735961656,590.6658899217346
1533058410.355,946.2107928693214,693.0912875772975,865.8526961157045,989.3679808279686,528.339201134723
1533058410.359,913.1037822459418,703.1354925610726,863.3902944636983,1002.2160612753161,552.0832805653353
1533058410.363,902.0699952583207,670.4931121043287,854.3626089531691,1056.825337155209,1029.9617537549707
1533058410.367,893.7932426024757,683.0470825935223,843.2826419292614,1072.8837930548377,869.6800992882653
1533058410.371,910.3467479141655,685.5568480989408,842.0514411032584,1105.0072834923171,839.9969605633089
1533058410.3739998,932.4143218894079,647.8897936692586,846.565283858523,1124.282693482449,958.723436589752
1533058410.3779998,926.9002532258553,660.4489071205535,843.6936024780093,1088.9488275926883,1306.0033940376384
1533058410.3820002,885.5164899466309,685.5568480989408,840.0,1085.731873502185,1172.4383880854082
1533058410.3860002,860.6918816396122,683.0470825935223,837.5375983479938,1069.6734176025564,958.723436589752
1533058410.39,921.3805349017867,667.9782036368089,833.434716141477,1008.6433908181007,834.063980142347
1533058410.394,943.4481088770291,635.335823180065,840.8210806873755,1063.2526666979936,926.0738076543147
1533058410.3979998,860.6918816396122,627.8013837017082,836.3063975219907,1101.7969080400358,1116.0386008459766
1533058410.4020002,816.5510840286115,640.3553541909018,828.5099128374646,989.3679808279686,1015.1232238291836
1533058410.4060001,841.3813419961461,647.8897936692586,828.5099128374646,989.3679808279686,970.5954763050581
1533058410.41,868.968634295457,652.9144676421968,830.5621943508432,1018.2810958131666,1029.9617537549707
1533058410.4129999,907.589713582389,645.38002816384,834.66507655736,995.7953103707532,834.063980142347
1533058410.417,915.8664662382339,657.9339986530338,837.1274782093661,999.0056858230346,498.6560624097667
1533058410.421,822.0708023526801,670.4931121043287,845.7450435812676,1027.9122221700109,908.2687875180467
1533058410.425,753.1053964346606,675.5126431151656,850.2588863365322,973.3095249283398,1003.2511841138776
1533058410.429,783.4497230657479,657.9339986530338,844.9239628938922,921.9106245007283,857.8080595729591
1533058410.4329998,893.7932426024757,657.9339986530338,844.1037226166369,973.3095249283398,1012.1506547453205
1533058410.437,882.7594556148543,665.4684381313905,846.565283858523,1005.4264367275974,955.7569463792711
1533058410.441,813.7940496968351,675.5126431151656,844.1037226166369,1018.2810958131666,863.7410399939212
1533058410.445,841.3813419961461,683.0470825935223,840.4101201386277,1069.6734176025564,762.8256629771282
1533058410.449,841.3813419961461,680.5373170881038,840.8210806873755,1008.6433908181007,611.4434791418657
1533058410.4529998,902.0699952583207,680.5373170881038,850.2588863365322,1002.2160612753161,694.5538360223906
1533058410.456,874.4827029590095,693.0912875772975,849.8487661979045,1027.9122221700109,768.7586433980903
1533058410.46,786.2067573975243,695.6061960448172,844.1037226166369,944.3964099431417,848.902510068134
1533058410.464,833.1045893403012,703.1354925610726,847.796484684526,960.4614444809924,955.7569463792711
1533058410.468,838.6243076643698,735.783015979918,841.2312008260031,970.0925708378365,934.9793571591398
1533058410.4720001,830.347555008525,713.1848405069492,844.9239628938922,937.975659038579,742.048073756997
1533058410.476,874.4827029590095,725.7388109961428,844.5138427552646,960.4614444809924,905.2962184341835
1533058410.48,998.622693475651,725.7388109961428,839.5898798613723,1072.8837930548377,1145.7217395709329
1533058410.484,846.9010603202147,723.2290454907243,837.9485588967416,950.8237394859265,1175.4048782958891
1533058410.488,863.4489159713885,723.2290454907243,834.66507655736,989.3679808279686,1006.2176743243585
1533058410.492,1062.0683810696019,715.6946060123676,842.4624016520062,1098.5865325877544,887.4911982979155
1533058410.496,968.2783668445637,715.6946060123676,848.6175653719015,1031.129176260514,1009.1841645348395
1533058410.4989998,937.9340402134765,710.6699320394293,844.1037226166369,1005.4264367275974,926.0738076543147
1533058410.5029998,813.7940496968351,705.6504010285925,843.2826419292614,954.0341149382078,804.3808414173907
1533058410.5070002,744.8286437788158,695.6061960448172,844.9239628938922,912.2729195056623,718.3039943263849
1533058410.5110002,877.245386951302,703.1354925610726,840.4101201386277,896.2144636060335,786.5697424077405
1533058410.515,993.1029751515824,710.6699320394293,838.3586790353693,1018.2810958131666,703.4593855272157
1533058410.519,918.6235005700104,708.160166534011,840.8210806873755,1072.8837930548377,816.2528811326968
1533058410.5229998,808.2799810332825,720.7141370232046,839.1789193126245,947.6067853954231,1083.3889719105393
1533058410.5270002,863.4489159713885,723.2290454907243,835.8962773833631,931.5483294957944,1041.8337934702768
1533058410.5310001,926.9002532258553,683.0470825935223,841.6413209646307,883.3663831586862,1101.2000709201895
1533058410.535,918.6235005700104,718.2043715177861,841.2312008260031,934.7587049480758,839.9969605633089
1533058410.5379999,915.8664662382339,725.7388109961428,837.1274782093661,973.3095249283398,721.2704845368659
1533058410.542,910.3467479141655,718.2043715177861,845.7450435812676,931.5483294957944,1050.7393429751019
1533058410.546,940.6910745452527,725.7388109961428,853.5415282657937,960.4614444809924,742.048073756997
1533058410.55,987.5889064880298,715.6946060123676,857.6452508824307,966.8821953855552,552.0832805653353
1533058410.554,965.5213325127874,723.2290454907243,857.235130743803,966.8821953855552,872.6465894987463
1533058410.5579998,990.3459408198061,720.7141370232046,843.2826419292614,1021.491471265448,1009.1841645348395
1533058410.562,926.9002532258553,708.160166534011,842.0514411032584,1021.491471265448,1053.7058331855828
1533058410.566,750.3483621028844,698.1159615502357,845.7450435812676,954.0341149382078,457.1008839695043
1533058410.57,857.9348473078359,713.1848405069492,846.1551637198953,986.1576053756872,629.254578151516
1533058410.574,1004.1424117997195,720.7141370232046,853.5415282657937,1027.9122221700109,890.4576885083965
1533058410.5779998,896.555926594768,667.9782036368089,853.1314081271661,1008.6433908181007,834.063980142347
1533058410.581,824.8278366844563,665.4684381313905,849.0276855105292,1018.2810958131666,982.4735948937464
1533058410.585,849.658094651991,700.6257270556542,847.796484684526,1034.3395517127954,842.9634507737899
1533058410.589,844.1383763279224,700.6257270556542,847.3863645458983,1021.491471265448,605.5104987209037
1533058410.593,857.9348473078359,710.6699320394293,846.1551637198953,1018.2810958131666,676.7488158861224
1533058410.5970001,899.3129609265442,715.6946060123676,844.9239628938922,970.0925708378365,1267.4207846812392
1533058410.601,863.4489159713885,688.0717565664605,846.1551637198953,944.3964099431417,1104.1665611306705
1533058410.605,827.5905206767486,683.0470825935223,851.0799670239077,954.0341149382078,596.6049492160786
1533058410.609,755.862430766437,688.0717565664605,852.3103274397906,889.7871340632489,780.6306831133963
1533058410.613,893.7932426024757,700.6257270556542,845.33492344264,1002.2160612753161,857.8080595729591
1533058410.617,976.5551195004084,708.160166534011,840.4101201386277,970.0925708378365,388.82905701476653
1533058410.62,855.1721633155437,720.7141370232046,850.2588863365322,786.9959118462479,445.22884425419824
1533058410.6239998,855.1721633155437,708.160166534011,859.6975323958092,848.0325172689253,724.2369747473468
1533058410.6279998,866.2115999636808,662.958672625972,860.9278928116921,989.3679808279686,842.9634507737899
1533058410.6320002,921.3805349017867,650.4047021367783,863.3902944636983,1011.853766270382,1184.3104278007143
1533058410.6360002,871.7256686272334,685.5568480989408,856.4140500564275,864.0909731685541,1163.532838580583
1533058410.64,835.8616236720776,735.783015979918,852.3103274397906,880.1494290681829,1056.678402269446
1533058410.644,747.5856781105921,740.8076899528562,860.5177726730644,848.0325172689253,932.0128669486588
1533058410.6479998,678.6202721925727,723.2290454907243,855.5938097791723,812.6986513791645,756.8866036827841
1533058410.6520002,800.0032283774377,698.1159615502357,853.1314081271661,806.2713218363799,786.5697424077405
1533058410.6560001,819.3137680209037,713.1848405069492,851.0799670239077,754.8790000469903,807.3473316278717
1533058410.66,750.3483621028844,710.6699320394293,851.0799670239077,799.8439922935952,934.9793571591398
1533058410.6629999,722.7610698035733,705.6504010285925,851.9002073011629,729.1762605140735,970.5954763050581
1533058410.667,664.8294508731751,715.6946060123676,851.0799670239077,690.6320191720314,854.8415693624781
1533058410.671,772.4159360781267,695.6061960448172,856.8250106051753,819.1194022837273,946.851396874446
1533058410.675,849.658094651991,655.4242331476153,859.2865718470614,854.4532681734881,733.1425242521719
1533058410.679,651.0386295537776,637.8455886854833,858.466331569806,722.7555096095108,688.6208556014285
1533058410.6829998,678.6202721925727,645.38002816384,858.466331569806,767.7270804943377,745.014563967478
1533058410.687,750.3483621028844,620.2669442233515,858.0553710210582,876.9390536159015,923.1073174438337
1533058410.691,744.8286437788158,660.4489071205535,854.3626089531691,880.1494290681829,1130.8832096451458
1533058410.695,775.1729704099031,673.0028776097471,856.4140500564275,803.0609463840985,629.254578151516
1533058410.699,855.1721633155437,655.4242331476153,854.3626089531691,928.337954043513,617.3825384362099
1533058410.7029998,880.0024212830782,632.8260576746464,861.7489734990676,970.0925708378365,949.823965958309
1533058410.706,769.6589017463505,617.757178717933,868.3142573575905,848.0325172689253,768.7586433980903
1533058410.71,805.5172970409903,652.9144676421968,867.9041372189629,912.2729195056623,765.7921531876092
1533058410.714,987.5889064880298,693.0912875772975,857.6452508824307,1031.129176260514,934.9793571591398
1533058410.718,874.4827029590095,690.581522071879,846.1551637198953,957.2444903904892,905.2962184341835
1533058410.7220001,769.6589017463505,667.9782036368089,848.6175653719015,915.4898735961656,878.5856487930904
1533058410.726,786.2067573975243,655.4242331476153,853.9524888145415,931.5483294957944,1044.80636255414
1533058410.73,783.4497230657479,675.5126431151656,861.7489734990676,873.7286781636201,1163.532838580583
1533058410.734,849.658094651991,665.4684381313905,864.6214952897013,899.4248390583149,905.2962184341835
1533058410.738,874.4827029590095,695.6061960448172,859.2865718470614,893.0040881537521,875.6191585826093
1533058410.742,888.2791739389231,705.6504010285925,862.5692137763228,876.9390536159015,1074.4834224057142
1533058410.745,866.2115999636808,642.8702626584216,862.1590936376952,931.5483294957944,1196.1824675160203
1533058410.7489998,786.2067573975243,652.9144676421968,857.235130743803,851.2428927212067,1276.320255312682
1533058410.7529998,852.4151289837673,675.5126431151656,861.7489734990676,835.184436821578,1121.9776601403207
1533058410.7570002,915.8664662382339,650.4047021367783,858.466331569806,976.5199003806213,1012.1506547453205
1533058410.7610002,833.1045893403012,652.9144676421968,851.0799670239077,992.57835628025,768.7586433980903
1533058410.765,786.2067573975243,645.38002816384,850.2588863365322,912.2729195056623,842.9634507737899
1533058410.769,797.2405443851454,622.77670972877,845.7450435812676,873.7286781636201,1255.5487449659329
1533058410.7729998,880.0024212830782,635.335823180065,844.9239628938922,921.9106245007283,1255.5487449659329
1533058410.7770002,882.7594556148543,660.4489071205535,844.5138427552646,896.2144636060335,926.0738076543147
1533058410.7810001,775.1729704099031,655.4242331476153,846.1551637198953,819.1194022837273,786.5697424077405
1533058410.785,747.5856781105921,650.4047021367783,851.4900871625354,809.4816972886613,863.7410399939212
1533058410.7879999,744.8286437788158,670.4931121043287,844.5138427552646,831.9674827310747,1053.7058331855828
1533058410.792,794.4835100533691,678.0275515826853,845.33492344264,905.8521686010996,952.79045616879
1533058410.796,860.6918816396122,683.0470825935223,855.5938097791723,982.9472299234059,964.6624958840962
1533058410.8,852.4151289837673,675.5126431151656,853.5415282657937,941.1860344908604,997.3121248195334
1533058410.804,744.8286437788158,640.3553541909018,851.0799670239077,883.3663831586862,1021.0562042501456
1533058410.8079998,758.6251147587292,670.4931121043287,844.9239628938922,925.1209999530097,979.5010258098832
1533058410.812,868.968634295457,703.1354925610726,844.1037226166369,902.6352145105963,828.1249208480028
1533058410.816,863.4489159713885,693.0912875772975,848.2074452332738,889.7871340632489,709.3984448215598
1533058410.82,827.5905206767486,688.0717565664605,845.7450435812676,896.2144636060335,747.981054177959
1533058410.824,819.3137680209037,698.1159615502357,843.6936024780093,883.3663831586862,875.6191585826093
1533058410.8279998,753.1053964346606,708.160166534011,844.1037226166369,873.7286781636201,688.6208556014285
1533058410.831,797.2405443851454,693.0912875772975,845.7450435812676,950.8237394859265,946.851396874446
1533058410.835,893.7932426024757,705.6504010285925,845.7450435812676,966.8821953855552,1279.2928243965453
1533058410.839,830.347555008525,647.8897936692586,846.1551637198953,966.8821953855552,866.7136090777842
1533058410.843,758.6251147587292,610.2227392395763,858.466331569806,1024.7018467177295,655.9712266659913
1533058410.8470001,780.6926887339716,688.0717565664605,856.8250106051753,986.1576053756872,807.3473316278717
1533058410.851,797.2405443851454,703.1354925610726,841.6413209646307,838.3948122738593,578.7938502064284
1533058410.855,877.245386951302,693.0912875772975,843.6936024780093,806.2713218363799,869.6800992882653
1533058410.859,866.2115999636808,728.2485765015613,838.7687991739969,799.8439922935952,1297.0978445328133
1533058410.863,805.5172970409903,753.3616604420498,837.5375983479938,764.5101264038344,837.0304703528279
1533058410.867,838.6243076643698,758.386334414988,837.9485588967416,754.8790000469903,750.9536232618221
1533058410.87,860.6918816396122,733.2732504744995,828.9200329760923,751.662045956487,697.5264051062536
1533058410.8739998,921.3805349017867,765.9156309312435,824.8171507695755,870.5183027113387,563.9553202806413
1533058410.8779998,921.3805349017867,791.0287148717321,823.5859499435725,902.6352145105963,828.1249208480028
1533058410.8820002,937.9340402134765,811.1222678013837,819.4822273269356,873.7286781636201,878.5856487930904
1533058410.8860002,896.555926594768,803.587828323027,816.199585397674,931.5483294957944,979.5010258098832
1533058410.89,907.589713582389,778.4747443825385,819.0721071883079,944.3964099431417,1163.532838580583
1533058410.894,971.03540117634,773.4500704096002,830.1512338020955,889.7871340632489,1228.8320964514576
1533058410.8979998,924.137569233563,760.8960999204065,828.0997926988371,915.4898735961656,1133.8496998556268
1533058410.9020002,913.1037822459418,765.9156309312435,822.3547491175693,944.3964099431417,1308.9759631215015
1533058410.9060001,871.7256686272334,753.3616604420498,824.4061902208277,870.5183027113387,1222.8930371571134
1533058410.91,863.4489159713885,730.7583420069798,827.6896725602094,790.2128659367511,964.6624958840962
1533058410.9129999,1017.9332331191171,745.8272209636931,837.5375983479938,928.337954043513,923.1073174438337
1533058410.917,1012.4135147950485,738.2927814853365,834.66507655736,1002.2160612753161,566.9218104911223
1533058410.921,874.4827029590095,725.7388109961428,827.6896725602094,915.4898735961656,934.9793571591398
1533058410.925,860.6918816396122,730.7583420069798,827.2787120114616,912.2729195056623,1303.0369038271574
1533058410.929,863.4489159713885,718.2043715177861,828.0997926988371,963.6718199332738,839.9969605633089
1533058410.9329998,877.245386951302,703.1354925610726,832.6136354541017,979.7302758329026,679.7153060966034
1533058410.937,871.7256686272334,695.6061960448172,837.9485588967416,960.4614444809924,845.936019857653
1533058410.941,822.0708023526801,690.581522071879,839.1789193126245,931.5483294957944,1047.772852764621
1533058410.945,846.9010603202147,693.0912875772975,842.4624016520062,963.6718199332738,1000.2786150300144
1533058410.949,838.6243076643698,695.6061960448172,841.6413209646307,934.7587049480758,1018.0897140396646
1533058410.9520001,910.3467479141655,700.6257270556542,842.8725217906339,912.2729195056623,804.3808414173907
1533058410.956,965.5213325127874,700.6257270556542,839.1789193126245,973.3095249283398,914.2017679390086
1533058410.96,913.1037822459418,670.4931121043287,840.0,963.6718199332738,1038.8673032597958
1533058410.964,910.3467479141655,655.4242331476153,845.33492344264,934.7587049480758,1172.4383880854082
1533058410.968,863.4489159713885,650.4047021367783,842.8725217906339,912.2729195056623,1121.9776601403207
1533058410.9720001,907.589713582389,652.9144676421968,846.565283858523,934.7587049480758,1018.0897140396646
1533058410.976,971.03540117634,635.335823180065,842.4624016520062,976.5199003806213,1184.3104278007143
1533058410.98,940.6910745452527,600.1785342558011,836.7173580707386,941.1860344908604,1050.7393429751019
1533058410.984,929.6572875576315,610.2227392395763,836.7173580707386,915.4898735961656,721.2704845368659
1533058410.988,885.5164899466309,600.1785342558011,829.7411136634678,889.7871340632489,516.4610825460348
1533058410.992,946.2107928693214,585.1096552990878,833.0237555927292,860.8805977162727,837.0304703528279
1533058410.995,1023.4529514431856,602.6882997612196,841.6413209646307,976.5199003806213,905.2962184341835
1533058410.9989998,965.5213325127874,640.3553541909018,840.8210806873755,979.7302758329026,1172.4383880854082
1533058411.0029998,907.589713582389,637.8455886854833,840.0,925.1209999530097,1098.2335807097086
1533058411.0070002,863.4489159713885,607.7129737341578,842.0514411032584,1011.853766270382,727.2034649578278
1533058411.0110002,868.968634295457,610.2227392395763,838.3586790353693,1047.1876321601428,869.6800992882653
1533058411.015,951.724861532874,612.7325047449948,835.8962773833631,992.57835628025,813.2863909222158
1533058411.019,932.4143218894079,607.7129737341578,833.8448362801047,925.1209999530097,795.4752919125656
1533058411.0229998,855.1721633155437,620.2669442233515,837.9485588967416,851.2428927212067,872.6465894987463
1533058411.0270002,830.347555008525,622.77670972877,846.565283858523,857.6702222639914,566.9218104911223
1533058411.0310001,852.4151289837673,632.8260576746464,849.4378056491568,921.9106245007283,804.3808414173907
1533058411.035,924.137569233563,662.958672625972,850.2588863365322,893.0040881537521,869.6800992882653
1533058411.0379999,921.3805349017867,657.9339986530338,859.2865718470614,1021.491471265448,644.0991869506852
1533058411.042,882.7594556148543,642.8702626584216,860.9278928116921,1024.7018467177295,644.0991869506852
1533058411.046,857.9348473078359,635.335823180065,856.8250106051753,831.9674827310747,810.3138218383526
1533058411.05,846.9010603202147,642.8702626584216,862.9801743250706,809.4816972886613,985.4400851042274
1533058411.054,874.4827029590095,645.38002816384,874.0593009388582,857.6702222639914,1029.9617537549707
1533058411.0579998,926.9002532258553,645.38002816384,875.2905017648612,963.6718199332738,994.3456346090525
1533058411.062,888.2791739389231,667.9782036368089,876.1115824522367,970.0925708378365,1172.4383880854082
1533058411.066,808.2799810332825,683.0470825935223,874.8803816262337,886.5767586109675,1199.1489577265013
1533058411.07,833.1045893403012,670.4931121043287,866.6729363929597,902.6352145105963,1101.2000709201895
1533058411.074,948.9678272010976,660.4489071205535,876.1115824522367,886.5767586109675,997.3121248195334
1533058411.0770001,943.4481088770291,642.8702626584216,879.3942243814981,835.184436821578,765.7921531876092
1533058411.081,885.5164899466309,655.4242331476153,873.6491808002305,989.3679808279686,851.869000278615
1533058411.085,846.9010603202147,710.6699320394293,880.2153050688736,963.6718199332738,1071.516932195233
1533058411.089,833.1045893403012,710.6699320394293,884.3181872753904,854.4532681734881,890.4576885083965
1533058411.093,915.8664662382339,708.160166534011,891.2944316826612,860.8805977162727,652.9986575821281
1533058411.0970001,849.658094651991,708.160166534011,885.1392679627659,876.9390536159015,587.6993997112535
1533058411.101,766.8962177540582,700.6257270556542,886.3704687887689,893.0040881537521,688.6208556014285
1533058411.105,728.2751384671259,695.6061960448172,892.9357526472919,825.5467318265119,949.823965958309
1533058411.109,744.8286437788158,693.0912875772975,884.3181872753904,835.184436821578,1041.8337934702768
1533058411.113,855.1721633155437,710.6699320394293,882.266746172132,934.7587049480758,831.0914110584838
1533058411.117,926.9002532258553,713.1848405069492,882.266746172132,1002.2160612753161,552.0832805653353
1533058411.12,880.0024212830782,705.6504010285925,881.4456654847565,966.8821953855552,733.1425242521719
1533058411.1239998,849.658094651991,705.6504010285925,877.3427832782398,1021.491471265448,911.2352777285276
1533058411.1279998,855.1721633155437,720.7141370232046,878.5731436941227,1040.76688125558,890.4576885083965
1533058411.1320002,907.589713582389,715.6946060123676,880.2153050688736,970.0925708378365,1124.9441503508017
1533058411.1360002,954.4818958646503,720.7141370232046,874.470261487606,966.8821953855552,1160.56026949672
1533058411.14,924.137569233563,738.2927814853365,871.5977396969721,1034.3395517127954,994.3456346090525
1533058411.144,857.9348473078359,735.783015979918,873.6491808002305,1027.9122221700109,1009.1841645348395
1533058411.1479998,822.0708023526801,720.7141370232046,874.0593009388582,1079.3111225976222,1163.532838580583
1533058411.1520002,910.3467479141655,713.1848405069492,874.8803816262337,1076.1007471453408,905.2962184341835
1533058411.1560001,995.8656591438746,710.6699320394293,874.0593009388582,1027.9122221700109,605.5104987209037
1533058411.16,937.9340402134765,713.1848405069492,874.470261487606,1056.825337155209,1062.611382690408
1533058411.1629999,904.8270295900969,713.1848405069492,871.1867791482243,1066.463042150275,1211.0209974418074
1533058411.167,788.9694413898164,695.6061960448172,860.5177726730644,1043.9772567078614,807.3473316278717
1533058411.171,857.9348473078359,708.160166534011,867.4940170803352,989.3679808279686,516.4610825460348
1533058411.175,973.7924355081163,713.1848405069492,876.931822729492,1024.7018467177295,926.0738076543147
1533058411.179,915.8664662382339,700.6257270556542,865.8526961157045,1053.6149617029275,1029.9617537549707
1533058411.1829998,857.9348473078359,700.6257270556542,860.5177726730644,986.1576053756872,789.5362326182214
1533058411.187,797.2405443851454,690.581522071879,860.9278928116921,973.3095249283398,1015.1232238291836
1533058411.191,835.8616236720776,673.0028776097471,859.2865718470614,989.3679808279686,822.1858615536587
1533058411.195,979.3121538321849,713.1848405069492,860.1076525344369,1040.76688125558,810.3138218383526
1533058411.199,957.2445798569426,740.8076899528562,861.3388533604399,1092.1592030449697,932.0128669486588
1533058411.2020001,816.5510840286115,718.2043715177861,853.9524888145415,1002.2160612753161,1050.7393429751019
1533058411.206,761.3821490905055,705.6504010285925,851.4900871625354,979.7302758329026,727.2034649578278
1533058411.21,830.347555008525,685.5568480989408,861.3388533604399,1076.1007471453408,798.4417821230466
1533058411.214,962.7586485204952,673.0028776097471,868.3142573575905,1095.369578497251,1252.57617588207
1533058411.218,935.1770058817001,700.6257270556542,863.800414602326,1005.4264367275974,1297.0978445328133
1533058411.2220001,877.245386951302,703.1354925610726,855.1828492304245,1008.6433908181007,920.1408272333528
1533058411.226,882.7594556148543,703.1354925610726,845.33492344264,1008.6433908181007,667.8432663812973
1533058411.23,835.8616236720776,720.7141370232046,846.9762444072708,966.8821953855552,813.2863909222158
1533058411.234,882.7594556148543,700.6257270556542,858.466331569806,989.3679808279686,911.2352777285276
1533058411.238,932.4143218894079,700.6257270556542,857.235130743803,950.8237394859265,884.5186292140523
1533058411.242,913.1037822459418,710.6699320394293,858.0553710210582,941.1860344908604,839.9969605633089
1533058411.245,855.1721633155437,698.1159615502357,860.1076525344369,999.0056858230346,860.7745497834401
1533058411.2489998,791.7264757215928,708.160166534011,856.0039299177998,963.6718199332738,875.6191585826093
1533058411.2529998,893.7932426024757,710.6699320394293,861.3388533604399,921.9106245007283,1139.788759149971
1533058411.2570002,943.4481088770291,700.6257270556542,867.0838969417075,937.975659038579,1175.4048782958891
1533058411.2610002,866.2115999636808,725.7388109961428,867.0838969417075,960.4614444809924,590.6658899217346
1533058411.265,863.4489159713885,728.2485765015613,860.1076525344369,1018.2810958131666,157.30908538284237
1533058411.269,882.7594556148543,740.8076899528562,855.5938097791723,992.57835628025,834.063980142347
1533058411.2729998,913.1037822459418,745.8272209636931,854.3626089531691,941.1860344908604,967.6289860945772
1533058411.2770002,960.0016141887188,730.7583420069798,847.3863645458983,1040.76688125558,792.5088017020845
1533058411.2810001,937.9340402134765,725.7388109961428,844.1037226166369,973.3095249283398,881.5521390035714
1533058411.284,849.658094651991,715.6946060123676,844.5138427552646,864.0909731685541,932.0128669486588
1533058411.2879999,835.8616236720776,710.6699320394293,844.1037226166369,934.7587049480758,1065.583951774271
1533058411.292,940.6910745452527,710.6699320394293,846.9762444072708,905.8521686010996,896.3906689293584
1533058411.296,993.1029751515824,703.1354925610726,847.796484684526,893.0040881537521,819.2193713431777
1533058411.3,893.7932426024757,700.6257270556542,851.0799670239077,925.1209999530097,587.6993997112535
1533058411.304,844.1383763279224,705.6504010285925,859.6975323958092,970.0925708378365,231.51389275854208
1533058411.3079998,866.2115999636808,675.5126431151656,857.6452508824307,1031.129176260514,178.08667460297357
1533058411.312,913.1037822459418,688.0717565664605,858.0553710210582,1034.3395517127954,406.6401560244168
1533058411.316,960.0016141887188,698.1159615502357,865.031615428329,1002.2160612753161,483.8114536105975
1533058411.32,971.03540117634,693.0912875772975,860.1076525344369,925.1209999530097,825.1584306375219
1533058411.324,915.8664662382339,685.5568480989408,860.5177726730644,925.1209999530097,745.014563967478
1533058411.3270001,827.5905206767486,673.0028776097471,863.3902944636983,880.1494290681829,421.4786859502039
1533058411.331,877.245386951302,680.5373170881038,859.6975323958092,902.6352145105963,534.272181555685
1533058411.335,924.137569233563,680.5373170881038,855.1828492304245,909.062544053381,676.7488158861224
1533058411.339,924.137569233563,690.581522071879,851.0799670239077,954.0341149382078,605.5104987209037
1533058411.343,866.2115999636808,700.6257270556542,856.0039299177998,989.3679808279686,730.176034041691
1533058411.3470001,797.2405443851454,703.1354925610726,860.1076525344369,902.6352145105963,1169.465819001545
1533058411.351,888.2791739389231,725.7388109961428,862.5692137763228,963.6718199332738,1178.3713685063701
1533058411.355,1001.3797278074272,755.8714259474683,871.5977396969721,1008.6433908181007,1273.3537651022011
1533058411.359,904.8270295900969,745.8272209636931,862.9801743250706,960.4614444809924,1219.9265469466325
1533058411.363,830.347555008525,730.7583420069798,858.466331569806,912.2729195056623,1041.8337934702768
1533058411.367,800.0032283774377,700.6257270556542,862.9801743250706,909.062544053381,958.723436589752
1533058411.37,860.6918816396122,693.0912875772975,858.466331569806,889.7871340632489,961.6960056736151
1533058411.3739998,984.8318721562534,698.1159615502357,862.1590936376952,947.6067853954231,1095.2610116258454
1533058411.3779998,910.3467479141655,680.5373170881038,862.1590936376952,1002.2160612753161,1222.8930371571134
1533058411.3820002,863.4489159713885,703.1354925610726,858.0553710210582,944.3964099431417,1024.0287733340087
1533058411.3860002,896.555926594768,703.1354925610726,858.466331569806,944.3964099431417,733.1425242521719
1533058411.39,871.7256686272334,710.6699320394293,853.9524888145415,947.6067853954231,970.5954763050581
1533058411.394,888.2791739389231,710.6699320394293,860.5177726730644,941.1860344908604,1080.4224817000581
1533058411.3979998,891.0362082706993,698.1159615502357,852.3103274397906,1008.6433908181007,1018.0897140396646
1533058411.4020002,857.9348473078359,713.1848405069492,842.0514411032584,1002.2160612753161,1169.465819001545
1533058411.4060001,863.4489159713885,695.6061960448172,845.33492344264,918.700249048447,1151.660798865277
1533058411.409,833.1045893403012,683.0470825935223,832.6136354541017,841.6051877261407,937.9458473696209
1533058411.4129999,811.0370153650589,685.5568480989408,830.9723144894708,851.2428927212067,1018.0897140396646
1533058411.417,891.0362082706993,680.5373170881038,836.7173580707386,931.5483294957944,1294.1313543223323
1533058411.421,833.1045893403012,670.4931121043287,840.4101201386277,896.2144636060335,1083.3889719105393
1533058411.425,758.6251147587292,690.581522071879,838.3586790353693,915.4898735961656,893.4241787188774
1533058411.429,800.0032283774377,728.2485765015613,837.9485588967416,934.7587049480758,848.902510068134
1533058411.4329998,855.1721633155437,738.2927814853365,843.6936024780093,883.3663831586862,869.6800992882653
1533058411.437,929.6572875576315,693.0912875772975,846.1551637198953,925.1209999530097,857.8080595729591
1533058411.441,888.2791739389231,665.4684381313905,846.1551637198953,986.1576053756872,715.3314252425217
1533058411.445,885.5164899466309,695.6061960448172,846.1551637198953,1005.4264367275974,848.902510068134
1533058411.449,822.0708023526801,708.160166534011,847.3863645458983,925.1209999530097,1231.7985866619385
1533058411.4520001,783.4497230657479,705.6504010285925,848.6175653719015,796.6336168413138,1110.1056204250146
1533058411.456,786.2067573975243,715.6946060123676,843.2826419292614,758.0893754992717,932.0128669486588
1533058411.46,758.6251147587292,698.1159615502357,843.2826419292614,793.4232413890325,1205.0880170208454
1533058411.464,783.4497230657479,705.6504010285925,844.1037226166369,835.184436821578,1395.0528102125072
1533058411.468,695.1737775042624,725.7388109961428,836.3063975219907,783.7855363939665,1297.0978445328133
1533058411.4720001,791.7264757215928,705.6504010285925,840.4101201386277,809.4816972886613,670.8097565917783
1533058411.476,797.2405443851454,703.1354925610726,851.9002073011629,774.1478313989004,513.4945923355538
1533058411.48,838.6243076643698,703.1354925610726,850.2588863365322,848.0325172689253,1113.0721106354956
1533058411.484,802.760262709214,710.6699320394293,842.8725217906339,854.4532681734881,1151.660798865277
1533058411.488,662.0724165413988,695.6061960448172,835.4861572447354,722.7555096095108,1003.2511841138776
1533058411.492,797.2405443851454,675.5126431151656,833.0237555927292,838.3948122738593,991.3730655251893
1533058411.495,943.4481088770291,710.6699320394293,833.434716141477,925.1209999530097,1222.8930371571134
1533058411.4989998,882.7594556148543,703.1354925610726,828.9200329760923,848.0325172689253,1172.4383880854082
1533058411.5029998,846.9010603202147,685.5568480989408,840.4101201386277,864.0909731685541,866.7136090777842
1533058411.5070002,811.0370153650589,688.0717565664605,845.33492344264,873.7286781636201,768.7586433980903
1533058411.5110002,772.4159360781267,688.0717565664605,837.1274782093661,899.4248390583149,611.4434791418657
1533058411.515,907.589713582389,673.0028776097471,834.66507655736,1015.0641417226634,638.160127656341
1533058411.519,866.2115999636808,678.0275515826853,834.2549564187324,970.0925708378365,673.7762468022593
1533058411.5229998,764.1391834222818,688.0717565664605,843.6936024780093,915.4898735961656,694.5538360223906
1533058411.5270002,761.3821490905055,678.0275515826853,844.5138427552646,954.0341149382078,560.9888300701604
1533058411.5310001,844.1383763279224,680.5373170881038,846.9762444072708,960.4614444809924,952.79045616879
1533058411.534,943.4481088770291,678.0275515826853,856.8250106051753,954.0341149382078,1092.2945214153644
1533058411.5379999,877.245386951302,693.0912875772975,852.7212879885384,944.3964099431417,842.9634507737899
1533058411.542,863.4489159713885,693.0912875772975,855.1828492304245,947.6067853954231,997.3121248195334
1533058411.546,937.9340402134765,688.0717565664605,857.235130743803,1015.0641417226634,825.1584306375219
1533058411.55,874.4827029590095,698.1159615502357,854.7727290917968,954.0341149382078,712.3649350320408
1533058411.554,871.7256686272334,683.0470825935223,862.1590936376952,941.1860344908604,1202.1154479369823
1533058411.5579998,926.9002532258553,675.5126431151656,854.7727290917968,1047.1876321601428,1145.7217395709329
1533058411.562,926.9002532258553,683.0470825935223,846.565283858523,1053.6149617029275,528.339201134723
1533058411.566,888.2791739389231,678.0275515826853,850.6690064751599,1063.2526666979936,655.9712266659913
1533058411.57,885.5164899466309,673.0028776097471,846.565283858523,1015.0641417226634,958.723436589752
1533058411.574,957.2445798569426,685.5568480989408,841.2312008260031,1056.825337155209,982.4735948937464
1533058411.5770001,1001.3797278074272,718.2043715177861,847.3863645458983,1114.6449884873832,1077.4559914895772
1533058411.581,866.2115999636808,720.7141370232046,856.8250106051753,944.3964099431417,997.3121248195334
1533058411.585,800.0032283774377,693.0912875772975,855.1828492304245,960.4614444809924,1003.2511841138776
1533058411.589,868.968634295457,683.0470825935223,851.4900871625354,1011.853766270382,1119.0111699298398
1533058411.593,910.3467479141655,698.1159615502357,849.8487661979045,960.4614444809924,765.7921531876092
1533058411.5970001,965.5213325127874,688.0717565664605,850.6690064751599,1027.9122221700109,825.1584306375219
1533058411.601,910.3467479141655,670.4931121043287,851.0799670239077,976.5199003806213,819.2193713431777
1533058411.605,844.1383763279224,680.5373170881038,855.5938097791723,950.8237394859265,834.063980142347
1533058411.609,929.6572875576315,700.6257270556542,857.6452508824307,1069.6734176025564,1098.2335807097086
1533058411.613,946.2107928693214,698.1159615502357,868.3142573575905,1011.853766270382,1184.3104278007143
1533058411.6160002,946.2107928693214,673.0028776097471,867.9041372189629,989.3679808279686,890.4576885083965
1533058411.62,891.0362082706993,652.9144676421968,863.800414602326,982.9472299234059,587.6993997112535
1533058411.6239998,822.0708023526801,662.958672625972,860.5177726730644,960.4614444809924,522.4001418403789
1533058411.6279998,841.3813419961461,690.581522071879,863.800414602326,1024.7018467177295,842.9634507737899
1533058411.6320002,880.0024212830782,693.0912875772975,873.2390606616028,1011.853766270382,1169.465819001545
1533058411.6360002,880.0024212830782,673.0028776097471,869.1353380449659,966.8821953855552,819.2193713431777
1533058411.64,868.968634295457,678.0275515826853,861.3388533604399,1008.6433908181007,697.5264051062536
1533058411.644,819.3137680209037,685.5568480989408,859.2865718470614,989.3679808279686,976.5345355994023
1533058411.6479998,720.004035471797,667.9782036368089,859.2865718470614,909.062544053381,1190.2434082216762
1533058411.6520002,731.0378224594182,665.4684381313905,854.7727290917968,870.5183027113387,1035.9008130493148
1533058411.6560001,822.0708023526801,662.958672625972,850.2588863365322,899.4248390583149,673.7762468022593
1533058411.659,846.9010603202147,680.5373170881038,852.3103274397906,973.3095249283398,1124.9441503508017
1533058411.6629999,835.8616236720776,700.6257270556542,858.0553710210582,1002.2160612753161,1264.448215597376
1533058411.667,849.658094651991,698.1159615502357,861.7489734990676,957.2444903904892,1136.8161900661078
1533058411.671,835.8616236720776,693.0912875772975,865.4417355669567,870.5183027113387,1107.1330513411515
1533058411.675,899.3129609265442,698.1159615502357,867.4940170803352,928.337954043513,733.1425242521719
1533058411.679,954.4818958646503,718.2043715177861,864.6214952897013,1002.2160612753161,756.8866036827841
1533058411.6829998,863.4489159713885,715.6946060123676,859.6975323958092,921.9106245007283,875.6191585826093
1533058411.687,802.760262709214,703.1354925610726,846.565283858523,976.5199003806213,611.4434791418657
1533058411.691,857.9348473078359,698.1159615502357,842.4624016520062,1050.3980076124242,765.7921531876092
1533058411.695,946.2107928693214,695.6061960448172,852.7212879885384,966.8821953855552,1213.9935665256705
1533058411.699,954.4818958646503,698.1159615502357,852.7212879885384,1018.2810958131666,866.7136090777842
1533058411.7020001,896.555926594768,693.0912875772975,850.2588863365322,999.0056858230346,881.5521390035714
1533058411.706,885.5164899466309,678.0275515826853,849.8487661979045,963.6718199332738,1068.550441984752
1533058411.71,868.968634295457,695.6061960448172,844.9239628938922,979.7302758329026,890.4576885083965
1533058411.714,816.5510840286115,700.6257270556542,849.8487661979045,934.7587049480758,932.0128669486588
1533058411.718,800.0032283774377,675.5126431151656,853.5415282657937,970.0925708378365,1089.3280312048835
1533058411.7220001,788.9694413898164,683.0470825935223,853.5415282657937,973.3095249283398,1225.8656062409766
1533058411.726,761.3821490905055,693.0912875772975,856.8250106051753,944.3964099431417,878.5856487930904
1533058411.73,805.5172970409903,698.1159615502357,858.0553710210582,941.1860344908604,552.0832805653353
1533058411.734,885.5164899466309,693.0912875772975,858.0553710210582,896.2144636060335,638.160127656341
1533058411.738,899.3129609265442,695.6061960448172,853.5415282657937,902.6352145105963,887.4911982979155
1533058411.7410002,885.5164899466309,688.0717565664605,853.1314081271661,982.9472299234059,765.7921531876092
1533058411.745,877.245386951302,698.1159615502357,857.6452508824307,963.6718199332738,590.6658899217346
1533058411.7489998,877.245386951302,705.6504010285925,862.5692137763228,918.700249048447,967.6289860945772
1533058411.7529998,902.0699952583207,670.4931121043287,876.931822729492,931.5483294957944,1288.1983739013704
1533058411.7570002,860.6918816396122,652.9144676421968,887.1907090660242,873.7286781636201,1041.8337934702768
1533058411.7610002,783.4497230657479,655.4242331476153,885.9603486501412,873.7286781636201,650.0321673716471
1533058411.765,788.9694413898164,665.4684381313905,887.601669614772,918.700249048447,839.9969605633089
1533058411.769,830.347555008525,675.5126431151656,890.4741914054058,963.6718199332738,810.3138218383526
1533058411.7729998,896.555926594768,683.0470825935223,899.0909163671872,905.8521686010996,932.0128669486588
1533058411.7770002,937.9340402134765,667.9782036368089,898.2706760899318,992.57835628025,1107.1330513411515
1533058411.7810001,896.555926594768,667.9782036368089,890.4741914054058,950.8237394859265,934.9793571591398
1533058411.784,805.5172970409903,688.0717565664605,891.2944316826612,809.4816972886613,934.9793571591398
1533058411.7879999,791.7264757215928,675.5126431151656,889.6531107180303,864.0909731685541,878.5856487930904
1533058411.792,860.6918816396122,667.9782036368089,889.2429905794028,954.0341149382078,1006.2176743243585
1533058411.796,902.0699952583207,665.4684381313905,883.0878268595075,1002.2160612753161,967.6289860945772
1533058411.8,868.968634295457,652.9144676421968,874.0593009388582,915.4898735961656,896.3906689293584
1533058411.804,904.8270295900969,645.38002816384,866.2628162543322,928.337954043513,1080.4224817000581
1533058411.8079998,841.3813419961461,645.38002816384,860.9278928116921,963.6718199332738,1032.9282439654517
1533058411.812,866.2115999636808,655.4242331476153,861.7489734990676,973.3095249283398,1018.0897140396646
1533058411.816,968.2783668445637,665.4684381313905,868.3142573575905,1011.853766270382,816.2528811326968
1533058411.82,921.3805349017867,680.5373170881038,874.8803816262337,995.7953103707532,908.2687875180467
1533058411.824,874.4827029590095,680.5373170881038,873.6491808002305,934.7587049480758,1365.369671487551
1533058411.8270001,822.0708023526801,652.9144676421968,869.9564187323414,954.0341149382078,1133.8496998556268
1533058411.831,827.5905206767486,662.958672625972,866.6729363929597,928.337954043513,1038.8673032597958
1533058411.835,929.6572875576315,667.9782036368089,862.9801743250706,873.7286781636201,1178.3713685063701
1533058411.839,971.03540117634,657.9339986530338,852.7212879885384,976.5199003806213,979.5010258098832
1533058411.843,902.0699952583207,662.958672625972,852.3103274397906,963.6718199332738,825.1584306375219
1533058411.8470001,857.9348473078359,670.4931121043287,856.0039299177998,954.0341149382078,1012.1506547453205
1533058411.851,863.4489159713885,678.0275515826853,849.0276855105292,925.1209999530097,937.9458473696209
1533058411.855,904.8270295900969,673.0028776097471,847.796484684526,841.6051877261407,890.4576885083965
1533058411.859,910.3467479141655,690.581522071879,842.8725217906339,925.1209999530097,661.9042070869532
1533058411.863,891.0362082706993,703.1354925610726,844.5138427552646,960.4614444809924,866.7136090777842
1533058411.8660002,866.2115999636808,713.1848405069492,846.9762444072708,973.3095249283398,1157.593779286239
1533058411.87,846.9010603202147,680.5373170881038,843.6936024780093,973.3095249283398,682.6817963070844
1533058411.8739998,904.8270295900969,642.8702626584216,848.6175653719015,1031.129176260514,854.8415693624781
1533058411.8779998,951.724861532874,657.9339986530338,843.6936024780093,1085.731873502185,1006.2176743243585
1533058411.8820002,915.8664662382339,652.9144676421968,842.0514411032584,1056.825337155209,831.0914110584838
1533058411.8860002,855.1721633155437,645.38002816384,845.7450435812676,1024.7018467177295,860.7745497834401
1533058411.89,849.658094651991,665.4684381313905,836.3063975219907,1008.6433908181007,929.0463767381779
1533058411.894,918.6235005700104,678.0275515826853,837.1274782093661,989.3679808279686,890.4576885083965
1533058411.8979998,976.5551195004084,660.4489071205535,851.4900871625354,1060.0357126074903,1178.3713685063701
1533058411.9020002,932.4143218894079,660.4489071205535,854.3626089531691,1082.5214980499036,1032.9282439654517
1533058411.9060001,891.0362082706993,675.5126431151656,854.3626089531691,1015.0641417226634,605.5104987209037
1533058411.909,913.1037822459418,685.5568480989408,854.3626089531691,950.8237394859265,831.0914110584838
1533058411.9129999,932.4143218894079,670.4931121043287,860.1076525344369,947.6067853954231,777.6641929029154
1533058411.917,940.6910745452527,657.9339986530338,860.5177726730644,1005.4264367275974,679.7153060966034
1533058411.921,904.8270295900969,645.38002816384,854.7727290917968,986.1576053756872,822.1858615536587
1533058411.925,830.347555008525,617.757178717933,860.1076525344369,1002.2160612753161,566.9218104911223
1533058411.929,777.9300047416793,632.8260576746464,859.2865718470614,947.6067853954231,825.1584306375219
1533058411.9329998,833.1045893403012,657.9339986530338,853.5415282657937,931.5483294957944,967.6289860945772
1533058411.937,937.9340402134765,673.0028776097471,845.33492344264,1002.2160612753161,902.3297282237025
1533058411.941,877.245386951302,670.4931121043287,842.4624016520062,1034.3395517127954,934.9793571591398
1533058411.945,800.0032283774377,667.9782036368089,846.565283858523,989.3679808279686,1258.515235176414
1533058411.948,753.1053964346606,645.38002816384,848.2074452332738,880.1494290681829,1475.190598009169
1533058411.9520001,871.7256686272334,637.8455886854833,854.7727290917968,941.1860344908604,1053.7058331855828
1533058411.956,943.4481088770291,650.4047021367783,861.7489734990676,1034.3395517127954,661.9042070869532
1533058411.96,788.9694413898164,675.5126431151656,857.6452508824307,915.4898735961656,837.0304703528279
1533058411.964,791.7264757215928,695.6061960448172,853.9524888145415,937.975659038579,1116.0386008459766
1533058411.968,800.0032283774377,675.5126431151656,849.4378056491568,1027.9122221700109,908.2687875180467
1533058411.9720001,838.6243076643698,667.9782036368089,843.2826419292614,976.5199003806213,979.5010258098832
1533058411.976,882.7594556148543,657.9339986530338,842.4624016520062,1031.129176260514,718.3039943263849
1533058411.98,844.1383763279224,655.4242331476153,843.2826419292614,1018.2810958131666,605.5104987209037
1533058411.984,822.0708023526801,685.5568480989408,842.4624016520062,1034.3395517127954,789.5362326182214
1533058411.988,788.9694413898164,698.1159615502357,838.7687991739969,1043.9772567078614,599.5714394265597
1533058411.9910002,811.0370153650589,675.5126431151656,846.565283858523,982.9472299234059,851.869000278615
1533058411.995,965.5213325127874,683.0470825935223,858.8764517084337,1027.9122221700109,783.6032521972594
1533058411.9989998,954.4818958646503,690.581522071879,856.4140500564275,1130.7034443870118,899.3632380132216
1533058412.0029998,880.0024212830782,678.0275515826853,849.4378056491568,1117.8553639396646,979.5010258098832
1533058412.0070002,855.1721633155437,705.6504010285925,849.0276855105292,1040.76688125558,842.9634507737899
1533058412.0110002,794.4835100533691,730.7583420069798,846.9762444072708,941.1860344908604,1113.0721106354956
1533058412.015,893.7932426024757,713.1848405069492,844.5138427552646,999.0056858230346,1056.678402269446
1533058412.019,915.8664662382339,713.1848405069492,849.8487661979045,992.57835628025,943.8849066639649
1533058412.0229998,830.347555008525,715.6946060123676,853.9524888145415,889.7871340632489,955.7569463792711
1533058412.0270002,830.347555008525,703.1354925610726,850.6690064751599,1015.0641417226634,780.6306831133963
1533058412.0310001,855.1721633155437,690.581522071879,844.9239628938922,1082.5214980499036,581.7664192902915
1533058412.034,921.3805349017867,683.0470825935223,841.6413209646307,1034.3395517127954,706.4258757376966
1533058412.0379999,1028.9670201067381,700.6257270556542,839.5898798613723,1031.129176260514,596.6049492160786
1533058412.042,918.6235005700104,688.0717565664605,834.66507655736,1063.2526666979936,632.2210683619969
1533058412.046,830.347555008525,678.0275515826853,831.7925547667262,995.7953103707532,878.5856487930904
1533058412.05,871.7256686272334,688.0717565664605,836.3063975219907,966.8821953855552,1035.9008130493148
1533058412.054,984.8318721562534,683.0470825935223,844.9239628938922,1024.7018467177295,946.851396874446
1533058412.0579998,1064.831065061894,678.0275515826853,847.796484684526,1079.3111225976222,792.5088017020845
1533058412.062,932.4143218894079,675.5126431151656,854.3626089531691,1127.4930689347304,1044.80636255414
1533058412.066,783.4497230657479,695.6061960448172,853.9524888145415,1121.0723180301677,1047.772852764621
1533058412.07,761.3821490905055,698.1159615502357,850.6690064751599,992.57835628025,736.1090144626529
1533058412.073,913.1037822459418,700.6257270556542,856.0039299177998,1040.76688125558,905.2962184341835
1533058412.0770001,1026.209985774962,693.0912875772975,851.4900871625354,1249.5597011418636,813.2863909222158
1533058412.081,1191.7280899103116,667.9782036368089,845.7450435812676,1220.6465861566655,279.0081304931486
1533058412.085,1045.520525418428,667.9782036368089,851.9002073011629,1056.825337155209,635.1936374458601
1533058412.089,686.8970248484175,678.0275515826853,851.9002073011629,809.4816972886613,1024.0287733340087
1533058412.093,819.3137680209037,718.2043715177861,854.3626089531691,738.8139655091396,768.7586433980903
1533058412.0970001,880.0024212830782,730.7583420069798,854.7727290917968,950.8237394859265,676.7488158861224
1533058412.101,816.5510840286115,730.7583420069798,853.5415282657937,963.6718199332738,682.6817963070844
1533058412.105,877.245386951302,760.8960999204065,854.7727290917968,973.3095249283398,839.9969605633089
1533058412.109,874.4827029590095,723.2290454907243,853.5415282657937,1050.3980076124242,857.8080595729591
1533058412.113,783.4497230657479,675.5126431151656,859.6975323958092,915.4898735961656,697.5264051062536
1533058412.1160002,819.3137680209037,650.4047021367783,863.800414602326,896.2144636060335,857.8080595729591
1533058412.12,855.1721633155437,640.3553541909018,867.0838969417075,876.9390536159015,1142.755249360452
1533058412.1239998,750.3483621028844,650.4047021367783,867.0838969417075,873.7286781636201,1211.0209974418074
1533058412.1279998,714.4843171477285,640.3553541909018,861.3388533604399,966.8821953855552,997.3121248195334
1533058412.1320002,766.8962177540582,620.2669442233515,867.9041372189629,1011.853766270382,641.126617866822
1533058412.1360002,788.9694413898164,615.2474132125145,869.9564187323414,1024.7018467177295,1062.611382690408
1533058412.14,780.6926887339716,605.1980652666381,864.2113751510738,1108.2176589445985,1234.7711557458017
1533058412.144,722.7610698035733,590.134329272026,870.3665388709691,1066.463042150275,745.014563967478
1533058412.1479998,684.1399905166412,595.1538602828629,869.9564187323414,976.5199003806213,786.5697424077405
1533058412.1520002,689.6597088407098,582.5998897936693,868.7252179063383,1079.3111225976222,863.7410399939212
1533058412.1560001,769.6589017463505,595.1538602828629,864.2113751510738,1105.0072834923171,780.6306831133963
1533058412.159,835.8616236720776,592.6440947774445,858.466331569806,1095.369578497251,831.0914110584838
1533058412.1629999,849.658094651991,607.7129737341578,858.466331569806,1166.0438889149946,798.4417821230466
1533058412.167,794.4835100533691,620.2669442233515,854.7727290917968,1159.6165593722098,905.2962184341835
1533058412.171,736.5518911229708,632.8260576746464,851.0799670239077,1085.731873502185,902.3297282237025
1533058412.175,891.0362082706993,642.8702626584216,856.0039299177998,1098.5865325877544,691.5873458119095
1533058412.179,946.2107928693214,640.3553541909018,861.3388533604399,1072.8837930548377,736.1090144626529
1533058412.1829998,844.1383763279224,640.3553541909018,865.031615428329,1053.6149617029275,756.8866036827841
1533058412.187,824.8278366844563,630.3111492071267,859.6975323958092,1060.0357126074903,745.014563967478
1533058412.191,772.4159360781267,642.8702626584216,853.5415282657937,1056.825337155209,531.305691345204
1533058412.195,888.2791739389231,647.8897936692586,860.5177726730644,1015.0641417226634,709.3984448215598
1533058412.198,932.4143218894079,620.2669442233515,859.2865718470614,918.700249048447,1095.2610116258454
1533058412.2020001,891.0362082706993,612.7325047449948,848.6175653719015,999.0056858230346,771.7312124819533
1533058412.206,910.3467479141655,647.8897936692586,844.9239628938922,1005.4264367275974,946.851396874446
1533058412.21,753.1053964346606,670.4931121043287,848.2074452332738,880.1494290681829,1029.9617537549707
1533058412.214,797.2405443851454,673.0028776097471,859.6975323958092,915.4898735961656,860.7745497834401
1533058412.218,998.622693475651,655.4242331476153,862.9801743250706,1069.6734176025564,863.7410399939212
1533058412.2220001,866.2115999636808,650.4047021367783,856.4140500564275,1092.1592030449697,991.3730655251893
1533058412.226,764.1391834222818,667.9782036368089,853.5415282657937,1027.9122221700109,1032.9282439654517
1533058412.23,822.0708023526801,683.0470825935223,854.3626089531691,1031.129176260514,1015.1232238291836
1533058412.234,902.0699952583207,685.5568480989408,864.2113751510738,1053.6149617029275,1237.7376459562827
1533058412.238,976.5551195004084,693.0912875772975,858.466331569806,1027.9122221700109,1101.2000709201895
1533058412.2410002,937.9340402134765,683.0470825935223,848.6175653719015,992.57835628025,599.5714394265597
1533058412.245,802.760262709214,657.9339986530338,859.2865718470614,979.7302758329026,786.5697424077405
1533058412.2489998,833.1045893403012,652.9144676421968,849.8487661979045,1076.1007471453408,715.3314252425217
1533058412.2529998,1040.0008070943595,667.9782036368089,848.2074452332738,1063.2526666979936,712.3649350320408
1533058412.2570002,982.0691881639613,660.4489071205535,857.235130743803,1063.2526666979936,973.5680453889213
1533058412.2610002,860.6918816396122,670.4931121043287,850.6690064751599,1018.2810958131666,884.5186292140523
1533058412.265,913.1037822459418,685.5568480989408,852.3103274397906,937.975659038579,798.4417821230466
1533058412.269,797.2405443851454,675.5126431151656,852.7212879885384,909.062544053381,842.9634507737899
1533058412.2729998,788.9694413898164,647.8897936692586,854.3626089531691,822.3297777360086,1056.678402269446
1533058412.2770002,910.3467479141655,660.4489071205535,848.2074452332738,844.815563178422,1329.7535523416327
1533058412.28,838.6243076643698,665.4684381313905,842.4624016520062,844.815563178422,1065.583951774271
1533058412.284,827.5905206767486,678.0275515826853,843.2826419292614,825.5467318265119,632.2210683619969
1533058412.2879999,844.1383763279224,705.6504010285925,844.9239628938922,873.7286781636201,807.3473316278717
1533058412.292,855.1721633155437,683.0470825935223,849.8487661979045,886.5767586109675,997.3121248195334
1533058412.296,899.3129609265442,660.4489071205535,853.1314081271661,928.337954043513,783.6032521972594
1533058412.3,866.2115999636808,647.8897936692586,851.4900871625354,954.0341149382078,750.9536232618221
1533058412.304,753.1053964346606,642.8702626584216,843.2826419292614,812.6986513791645,685.6543653909475
1533058412.3079998,673.10620352902,637.8455886854833,842.4624016520062,848.0325172689253,421.4786859502039
1533058412.312,802.760262709214,652.9144676421968,849.4378056491568,864.0909731685541,845.936019857653
1533058412.316,791.7264757215928,667.9782036368089,854.3626089531691,751.662045956487,1059.644892479927
1533058412.32,714.4843171477285,655.4242331476153,848.6175653719015,819.1194022837273,572.8608697854664
1533058412.323,835.8616236720776,622.77670972877,849.4378056491568,870.5183027113387,825.1584306375219
1533058412.3270001,764.1391834222818,612.7325047449948,840.8210806873755,764.5101264038344,789.5362326182214
1533058412.331,728.2751384671259,627.8013837017082,840.4101201386277,764.5101264038344,647.0656771611661
1533058412.335,860.6918816396122,632.8260576746464,845.33492344264,851.2428927212067,753.9201134723031
1533058412.339,863.4489159713885,637.8455886854833,842.8725217906339,886.5767586109675,629.254578151516
1533058412.343,835.8616236720776,655.4242331476153,847.3863645458983,886.5767586109675,991.3730655251893
1533058412.3470001,775.1729704099031,655.4242331476153,844.9239628938922,867.3013486208355,979.5010258098832
1533058412.351,742.0716094470395,673.0028776097471,840.8210806873755,841.6051877261407,1193.2159773055394
1533058412.355,863.4489159713885,667.9782036368089,848.6175653719015,899.4248390583149,1587.9840936146502
1533058412.359,838.6243076643698,645.38002816384,847.3863645458983,886.5767586109675,1350.5250626883817
1533058412.363,860.6918816396122,647.8897936692586,837.1274782093661,912.2729195056623,908.2687875180467
1533058412.3660002,833.1045893403012,665.4684381313905,832.6136354541017,889.7871340632489,1047.772852764621
1533058412.37,761.3821490905055,665.4684381313905,826.0475111854585,809.4816972886613,747.981054177959
1533058412.3739998,904.8270295900969,642.8702626584216,833.0237555927292,909.062544053381,400.7010967300727
1533058412.3779998,1004.1424117997195,627.8013837017082,840.4101201386277,966.8821953855552,831.0914110584838
1533058412.3820002,926.9002532258553,627.8013837017082,835.8962773833631,880.1494290681829,795.4752919125656
1533058412.3860002,871.7256686272334,657.9339986530338,834.2549564187324,902.6352145105963,495.68957219928575
1533058412.39,816.5510840286115,673.0028776097471,831.3824346280985,915.4898735961656,1116.0386008459766
1533058412.394,849.658094651991,673.0028776097471,831.3824346280985,864.0909731685541,1157.593779286239
1533058412.3979998,926.9002532258553,667.9782036368089,836.3063975219907,925.1209999530097,1187.2769180111952
1533058412.4020002,891.0362082706993,637.8455886854833,835.0760371061078,989.3679808279686,1205.0880170208454
1533058412.405,805.5172970409903,642.8702626584216,830.9723144894708,947.6067853954231,911.2352777285276
1533058412.409,775.1729704099031,660.4489071205535,827.6896725602094,992.57835628025,558.0162609862972
1533058412.4129999,904.8270295900969,630.3111492071267,839.1789193126245,999.0056858230346,617.3825384362099
1533058412.417,971.03540117634,630.3111492071267,842.0514411032584,973.3095249283398,1024.0287733340087
1533058412.421,857.9348473078359,640.3553541909018,839.5898798613723,976.5199003806213,647.0656771611661
1533058412.425,860.6918816396122,645.38002816384,844.5138427552646,982.9472299234059,1068.550441984752
1533058412.429,924.137569233563,630.3111492071267,846.9762444072708,1024.7018467177295,1157.593779286239
1533058412.4329998,924.137569233563,662.958672625972,846.9762444072708,989.3679808279686,507.5616119145918
1533058412.437,913.1037822459418,678.0275515826853,841.6413209646307,954.0341149382078,652.9986575821281
1533058412.441,896.555926594768,665.4684381313905,839.1789193126245,1018.2810958131666,822.1858615536587
1533058412.445,855.1721633155437,683.0470825935223,837.1274782093661,989.3679808279686,1024.0287733340087
1533058412.448,786.2067573975243,673.0028776097471,830.9723144894708,915.4898735961656,795.4752919125656
1533058412.4520001,744.8286437788158,652.9144676421968,838.3586790353693,909.062544053381,682.6817963070844
1533058412.456,816.5510840286115,605.1980652666381,846.9762444072708,902.6352145105963,985.4400851042274
1533058412.46,849.658094651991,620.2669442233515,842.4624016520062,960.4614444809924,1056.678402269446
1533058412.464,835.8616236720776,673.0028776097471,835.4861572447354,995.7953103707532,1240.7041361667636
1533058412.468,720.004035471797,703.1354925610726,838.3586790353693,928.337954043513,1163.532838580583
1533058412.4720001,689.6597088407098,720.7141370232046,842.0514411032584,880.1494290681829,1240.7041361667636
1533058412.476,860.6918816396122,708.160166534011,844.9239628938922,928.337954043513,1107.1330513411515
1533058412.48,924.137569233563,690.581522071879,847.3863645458983,979.7302758329026,807.3473316278717
1533058412.484,797.2405443851454,695.6061960448172,855.1828492304245,848.0325172689253,973.5680453889213
1533058412.488,722.7610698035733,683.0470825935223,860.9278928116921,838.3948122738593,804.3808414173907
1533058412.4910002,664.8294508731751,693.0912875772975,858.466331569806,822.3297777360086,566.9218104911223
1533058412.495,852.4151289837673,733.2732504744995,861.7489734990676,954.0341149382078,896.3906689293584
1533058412.4989998,965.5213325127874,733.2732504744995,859.6975323958092,1076.1007471453408,1077.4559914895772
1533058412.5029998,816.5510840286115,713.1848405069492,855.5938097791723,1037.5499271650767,608.4769889313848
1533058412.5070002,822.0708023526801,730.7583420069798,849.0276855105292,963.6718199332738,590.6658899217346
1533058412.5110002,800.0032283774377,715.6946060123676,846.9762444072708,905.8521686010996,926.0738076543147
1533058412.515,915.8664662382339,725.7388109961428,845.33492344264,982.9472299234059,1504.8737367341253
1533058412.519,960.0016141887188,748.3369864691116,843.6936024780093,1015.0641417226634,1377.241711202857
1533058412.5229998,808.2799810332825,730.7583420069798,844.5138427552646,995.7953103707532,807.3473316278717
1533058412.5270002,816.5510840286115,710.6699320394293,841.2312008260031,973.3095249283398,727.2034649578278
1533058412.53,877.245386951302,690.581522071879,839.1789193126245,912.2729195056623,848.902510068134
1533058412.534,896.555926594768,695.6061960448172,843.2826419292614,893.0040881537521,747.981054177959
1533058412.5379999,921.3805349017867,700.6257270556542,840.4101201386277,966.8821953855552,798.4417821230466
1533058412.542,844.1383763279224,698.1159615502357,830.5621943508432,947.6067853954231,715.3314252425217
1533058412.546,835.8616236720776,683.0470825935223,830.9723144894708,966.8821953855552,676.7488158861224
1533058412.55,802.760262709214,637.8455886854833,840.4101201386277,957.2444903904892,813.2863909222158
1533058412.554,880.0024212830782,662.958672625972,834.66507655736,928.337954043513,611.4434791418657
1533058412.5579998,926.9002532258553,670.4931121043287,832.203515315474,928.337954043513,528.339201134723
1533058412.562,775.1729704099031,652.9144676421968,840.0,934.7587049480758,777.6641929029154
1533058412.566,846.9010603202147,688.0717565664605,830.5621943508432,1037.5499271650767,908.2687875180467
1533058412.57,915.8664662382339,683.0470825935223,828.5099128374646,1050.3980076124242,973.5680453889213
1533058412.573,849.658094651991,683.0470825935223,833.434716141477,905.8521686010996,1136.8161900661078
1533058412.5770001,877.245386951302,695.6061960448172,834.66507655736,899.4248390583149,929.0463767381779
1533058412.581,885.5164899466309,665.4684381313905,838.3586790353693,947.6067853954231,724.2369747473468
1533058412.585,813.7940496968351,688.0717565664605,849.8487661979045,889.7871340632489,762.8256629771282
1533058412.589,791.7264757215928,708.160166534011,848.2074452332738,912.2729195056623,932.0128669486588
1533058412.593,824.8278366844563,655.4242331476153,839.1789193126245,973.3095249283398,923.1073174438337
1533058412.5970001,984.8318721562534,683.0470825935223,834.2549564187324,995.7953103707532,857.8080595729591
1533058412.601,910.3467479141655,667.9782036368089,843.6936024780093,941.1860344908604,911.2352777285276
1533058412.605,772.4159360781267,630.3111492071267,837.5375983479938,896.2144636060335,940.9184164534839
1533058412.609,838.6243076643698,637.8455886854833,810.4545418164064,934.7587049480758,1044.80636255414
1533058412.6120002,811.0370153650589,630.3111492071267,819.8923474655631,896.2144636060335,1104.1665611306705
1533058412.6160002,868.968634295457,645.38002816384,834.66507655736,928.337954043513,807.3473316278717
1533058412.62,924.137569233563,642.8702626584216,835.0760371061078,1031.129176260514,768.7586433980903
1533058412.6239998,816.5510840286115,652.9144676421968,843.2826419292614,992.57835628025,1074.4834224057142
1533058412.6279998,758.6251147587292,662.958672625972,850.2588863365322,963.6718199332738,783.6032521972594
1533058412.6320002,805.5172970409903,667.9782036368089,847.796484684526,963.6718199332738,673.7762468022593
1533058412.6360002,844.1383763279224,670.4931121043287,840.0,937.975659038579,1124.9441503508017
1533058412.64,813.7940496968351,665.4684381313905,838.7687991739969,957.2444903904892,756.8866036827841
1533058412.644,893.7932426024757,685.5568480989408,840.0,1053.6149617029275,647.0656771611661
1533058412.6479998,819.3137680209037,645.38002816384,838.3586790353693,944.3964099431417,917.1682581494896
1533058412.6520002,692.416743172486,600.1785342558011,845.7450435812676,803.0609463840985,783.6032521972594
1533058412.655,788.9694413898164,602.6882997612196,851.4900871625354,799.8439922935952,828.1249208480028
1533058412.659,868.968634295457,617.757178717933,853.1314081271661,912.2729195056623,780.6306831133963
1533058412.6629999,802.760262709214,635.335823180065,861.3388533604399,973.3095249283398,676.7488158861224
1533058412.667,791.7264757215928,622.77670972877,867.9041372189629,982.9472299234059,825.1584306375219
1533058412.671,794.4835100533691,622.77670972877,865.031615428329,934.7587049480758,884.5186292140523
1533058412.675,976.5551195004084,670.4931121043287,868.3142573575905,1005.4264367275974,715.3314252425217
1533058412.679,1006.8994461314959,680.5373170881038,871.5977396969721,1034.3395517127954,899.3632380132216
1533058412.6829998,885.5164899466309,673.0028776097471,874.0593009388582,950.8237394859265,1098.2335807097086
1533058412.687,855.1721633155437,673.0028776097471,878.1630235554951,931.5483294957944,976.5345355994023
1533058412.691,794.4835100533691,632.8260576746464,876.1115824522367,896.2144636060335,376.9570172994606
1533058412.695,882.7594556148543,622.77670972877,878.1630235554951,992.57835628025,308.69126921810494
1533058412.698,1001.3797278074272,652.9144676421968,884.3181872753904,1050.3980076124242,887.4911982979155
1533058412.7020001,907.589713582389,645.38002816384,881.4456654847565,976.5199003806213,831.0914110584838
1533058412.706,791.7264757215928,640.3553541909018,879.8043445201258,970.0925708378365,991.3730655251893
1533058412.71,788.9694413898164,667.9782036368089,873.6491808002305,934.7587049480758,958.723436589752
1533058412.714,880.0024212830782,688.0717565664605,872.4179799742275,970.0925708378365,851.869000278615
1533058412.718,990.3459408198061,690.581522071879,867.0838969417075,1005.4264367275974,943.8849066639649
1533058412.7220001,921.3805349017867,693.0912875772975,853.5415282657937,896.2144636060335,857.8080595729591
1533058412.726,811.0370153650589,667.9782036368089,854.3626089531691,970.0925708378365,911.2352777285276
1533058412.73,811.0370153650589,657.9339986530338,857.235130743803,1127.4930689347304,1148.6882297814138
1533058412.734,882.7594556148543,675.5126431151656,860.1076525344369,1098.5865325877544,1205.0880170208454
1533058412.7370002,1009.6564804632721,698.1159615502357,865.031615428329,1005.4264367275974,783.6032521972594
1533058412.7410002,943.4481088770291,700.6257270556542,874.470261487606,1008.6433908181007,771.7312124819533
1533058412.745,893.7932426024757,708.160166534011,880.2153050688736,1047.1876321601428,1148.6882297814138
1533058412.7489998,888.2791739389231,720.7141370232046,870.7766590095966,1002.2160612753161,1160.56026949672
1533058412.7529998,976.5551195004084,743.3174554582747,865.031615428329,995.7953103707532,1133.8496998556268
1533058412.7570002,1028.9670201067381,738.2927814853365,867.4940170803352,1105.0072834923171,1130.8832096451458
1533058412.7610002,915.8664662382339,730.7583420069798,868.7252179063383,1127.4930689347304,937.9458473696209
1533058412.765,921.3805349017867,748.3369864691116,865.4417355669567,1098.5865325877544,1178.3713685063701
1533058412.769,860.6918816396122,740.8076899528562,860.9278928116921,941.1860344908604,1222.8930371571134
1533058412.7729998,863.4489159713885,735.783015979918,859.6975323958092,921.9106245007283,994.3456346090525
1533058412.7770002,880.0024212830782,715.6946060123676,863.3902944636983,966.8821953855552,896.3906689293584
1533058412.78,907.589713582389,723.2290454907243,866.2628162543322,1053.6149617029275,1228.8320964514576
1533058412.784,860.6918816396122,710.6699320394293,866.2628162543322,1140.341149382078,1178.3713685063701
1533058412.7879999,780.6926887339716,667.9782036368089,868.7252179063383,1072.8837930548377,614.4160482257288
1533058412.792,957.2445798569426,728.2485765015613,862.5692137763228,973.3095249283398,845.936019857653
1533058412.796,1015.1761987873407,758.386334414988,858.466331569806,970.0925708378365,1178.3713685063701
1533058412.8,835.8616236720776,720.7141370232046,864.2113751510738,970.0925708378365,1222.8930371571134
1533058412.804,728.2751384671259,665.4684381313905,873.6491808002305,957.2444903904892,1445.513538157595
1533058412.8079998,772.4159360781267,627.8013837017082,879.3942243814981,1101.7969080400358,1237.7376459562827
1533058412.812,780.6926887339716,670.4931121043287,867.9041372189629,1015.0641417226634,964.6624958840962
1533058412.816,946.2107928693214,730.7583420069798,858.0553710210582,1011.853766270382,932.0128669486588
1533058412.82,1028.9670201067381,730.7583420069798,853.1314081271661,999.0056858230346,471.9394138952914
1533058412.823,896.555926594768,698.1159615502357,842.0514411032584,886.5767586109675,507.5616119145918
1533058412.8270001,813.7940496968351,673.0028776097471,839.5898798613723,1024.7018467177295,759.8591727666472
1533058412.831,880.0024212830782,690.581522071879,835.0760371061078,979.7302758329026,599.5714394265597
1533058412.835,932.4143218894079,647.8897936692586,838.7687991739969,1053.6149617029275,792.5088017020845
1533058412.839,857.9348473078359,615.2474132125145,848.2074452332738,1137.1307739297965,1044.80636255414
1533058412.843,857.9348473078359,673.0028776097471,844.5138427552646,902.6352145105963,929.0463767381779
1533058412.8470001,976.5551195004084,708.160166534011,837.1274782093661,809.4816972886613,825.1584306375219
1533058412.851,924.137569233563,675.5126431151656,834.2549564187324,880.1494290681829,920.1408272333528
1533058412.855,824.8278366844563,673.0028776097471,837.5375983479938,1002.2160612753161,997.3121248195334
1533058412.859,827.5905206767486,693.0912875772975,833.8448362801047,944.3964099431417,765.7921531876092
1533058412.8620002,808.2799810332825,675.5126431151656,837.1274782093661,902.6352145105963,765.7921531876092
1533058412.8660002,852.4151289837673,655.4242331476153,850.2588863365322,1076.1007471453408,1101.2000709201895
1533058412.87,819.3137680209037,625.2916181962897,855.1828492304245,1027.9122221700109,753.9201134723031
1533058412.8739998,866.2115999636808,627.8013837017082,855.1828492304245,851.2428927212067,617.3825384362099
1533058412.8779998,990.3459408198061,662.958672625972,862.9801743250706,934.7587049480758,1015.1232238291836
1533058412.8820002,918.6235005700104,685.5568480989408,862.1590936376952,941.1860344908604,1059.644892479927
1533058412.8860002,764.1391834222818,665.4684381313905,847.796484684526,758.0893754992717,1053.7058331855828
1533058412.89,675.8632378607963,622.77670972877,847.3863645458983,973.3095249283398,970.5954763050581
1533058412.894,750.3483621028844,642.8702626584216,858.0553710210582,1204.5881302570367,546.1442212709911
1533058412.8979998,833.1045893403012,655.4242331476153,866.2628162543322,825.5467318265119,676.7488158861224
1533058412.9020002,772.4159360781267,652.9144676421968,864.2113751510738,729.1762605140735,932.0128669486588
1533058412.905,830.347555008525,693.0912875772975,860.1076525344369,876.9390536159015,914.2017679390086
1533058412.909,846.9010603202147,693.0912875772975,845.33492344264,716.3281800667262,932.0128669486588
1533058412.9129999,874.4827029590095,652.9144676421968,846.1551637198953,838.3948122738593,1015.1232238291836
1533058412.917,937.9340402134765,642.8702626584216,849.4378056491568,957.2444903904892,1068.550441984752
1533058412.921,935.1770058817001,685.5568480989408,844.5138427552646,793.4232413890325,718.3039943263849
1533058412.925,877.245386951302,708.160166534011,848.6175653719015,790.2128659367511,804.3808414173907
1533058412.929,786.2067573975243,688.0717565664605,850.6690064751599,844.815563178422,1107.1330513411515
1533058412.9329998,788.9694413898164,678.0275515826853,850.2588863365322,822.3297777360086,1145.7217395709329
1533058412.937,772.4159360781267,662.958672625972,853.9524888145415,803.0609463840985,1032.9282439654517
1533058412.941,769.6589017463505,660.4489071205535,858.466331569806,825.5467318265119,1317.8754337529444
1533058412.944,918.6235005700104,688.0717565664605,858.8764517084337,925.1209999530097,1021.0562042501456
1533058412.948,948.9678272010976,693.0912875772975,860.1076525344369,941.1860344908604,492.7170031154226
1533058412.9520001,846.9010603202147,710.6699320394293,858.8764517084337,838.3948122738593,825.1584306375219
1533058412.956,852.4151289837673,700.6257270556542,856.8250106051753,857.6702222639914,1062.611382690408
1533058412.96,885.5164899466309,710.6699320394293,851.0799670239077,909.062544053381,828.1249208480028
1533058412.964,913.1037822459418,728.2485765015613,853.5415282657937,902.6352145105963,430.384235455029
1533058412.968,907.589713582389,710.6699320394293,858.8764517084337,909.062544053381,638.160127656341
1533058412.9720001,899.3129609265442,700.6257270556542,856.0039299177998,902.6352145105963,932.0128669486588
1533058412.976,979.3121538321849,698.1159615502357,856.8250106051753,954.0341149382078,831.0914110584838
1533058412.98,1020.6902674508933,713.1848405069492,862.1590936376952,1011.853766270382,819.2193713431777
1533058412.984,987.5889064880298,725.7388109961428,861.3388533604399,1111.4346130351018,584.7329095007725
1533058412.9870002,971.03540117634,733.2732504744995,858.8764517084337,1092.1592030449697,920.1408272333528
1533058412.9910002,962.7586485204952,745.8272209636931,861.3388533604399,896.2144636060335,1074.4834224057142
1533058412.995,965.5213325127874,735.783015979918,865.4417355669567,957.2444903904892,555.0497707758162
1533058412.9989998,984.8318721562534,743.3174554582747,860.9278928116921,1018.2810958131666,804.3808414173907
1533058413.0029998,910.3467479141655,755.8714259474683,855.5938097791723,950.8237394859265,1101.2000709201895
1533058413.0070002,888.2791739389231,745.8272209636931,851.4900871625354,902.6352145105963,831.0914110584838
1533058413.0110002,924.137569233563,743.3174554582747,847.796484684526,902.6352145105963,831.0914110584838
1533058413.015,929.6572875576315,748.3369864691116,847.3863645458983,963.6718199332738,801.4082723335275
1533058413.019,1001.3797278074272,758.386334414988,842.4624016520062,893.0040881537521,747.981054177959
1533058413.0229998,984.8318721562534,753.3616604420498,844.9239628938922,854.4532681734881,878.5856487930904
1533058413.0270002,910.3467479141655,755.8714259474683,843.2826419292614,1008.6433908181007,893.4241787188774
1533058413.03,915.8664662382339,745.8272209636931,837.5375983479938,960.4614444809924,745.014563967478
1533058413.034,943.4481088770291,715.6946060123676,842.0514411032584,838.3948122738593,786.5697424077405
1533058413.0379999,1023.4529514431856,713.1848405069492,835.8962773833631,844.815563178422,762.8256629771282
1533058413.042,993.1029751515824,693.0912875772975,838.7687991739969,915.4898735961656,1047.772852764621
1533058413.046,868.968634295457,693.0912875772975,845.33492344264,937.975659038579,1350.5250626883817
1533058413.05,766.8962177540582,725.7388109961428,844.1037226166369,799.8439922935952,946.851396874446
1533058413.054,777.9300047416793,720.7141370232046,849.0276855105292,809.4816972886613,851.869000278615
1533058413.0579998,907.589713582389,710.6699320394293,842.8725217906339,857.6702222639914,1208.0545072313264
1533058413.062,899.3129609265442,698.1159615502357,831.7925547667262,918.700249048447,949.823965958309
1533058413.066,838.6243076643698,690.581522071879,827.6896725602094,883.3663831586862,664.8767761708164
1533058413.069,802.760262709214,705.6504010285925,823.5859499435725,774.1478313989004,602.5440085104227
1533058413.073,841.3813419961461,705.6504010285925,820.3024676041908,864.0909731685541,742.048073756997
1533058413.0770001,935.1770058817001,688.0717565664605,820.3024676041908,931.5483294957944,1127.9106405612827
1533058413.081,882.7594556148543,685.5568480989408,825.2272709082032,864.0909731685541,1190.2434082216762
1533058413.085,819.3137680209037,683.0470825935223,828.9200329760923,835.184436821578,932.0128669486588
1533058413.089,813.7940496968351,698.1159615502357,822.3547491175693,844.815563178422,908.2687875180467
1533058413.093,882.7594556148543,713.1848405069492,830.5621943508432,905.8521686010996,650.0321673716471
1533058413.0970001,971.03540117634,700.6257270556542,837.9485588967416,954.0341149382078,721.2704845368659
1533058413.101,990.3459408198061,690.581522071879,836.3063975219907,989.3679808279686,893.4241787188774
1533058413.105,990.3459408198061,695.6061960448172,836.7173580707386,937.975659038579,694.5538360223906
1533058413.109,852.4151289837673,675.5126431151656,836.3063975219907,825.5467318265119,715.3314252425217
1533058413.1120002,805.5172970409903,645.38002816384,838.7687991739969,803.0609463840985,543.1777310605102
1533058413.1160002,926.9002532258553,642.8702626584216,838.3586790353693,883.3663831586862,563.9553202806413
1533058413.12,946.2107928693214,670.4931121043287,834.66507655736,902.6352145105963,940.9184164534839
1533058413.1239998,808.2799810332825,670.4931121043287,833.8448362801047,883.3663831586862,940.9184164534839
1533058413.1279998,717.2413514795047,657.9339986530338,840.0,848.0325172689253,914.2017679390086
1533058413.1320002,772.4159360781267,673.0028776097471,843.6936024780093,848.0325172689253,1193.2159773055394
1533058413.1360002,877.245386951302,690.581522071879,842.4624016520062,867.3013486208355,1047.772852764621
1533058413.14,871.7256686272334,675.5126431151656,849.8487661979045,844.815563178422,712.3649350320408
1533058413.144,786.2067573975243,647.8897936692586,859.6975323958092,835.184436821578,801.4082723335275
1533058413.1479998,780.6926887339716,685.5568480989408,861.3388533604399,793.4232413890325,1071.516932195233
1533058413.1520002,805.5172970409903,720.7141370232046,863.3902944636983,825.5467318265119,1113.0721106354956
1533058413.155,846.9010603202147,688.0717565664605,869.9564187323414,860.8805977162727,756.8866036827841
1533058413.159,868.968634295457,667.9782036368089,875.2905017648612,883.3663831586862,596.6049492160786
1533058413.1629999,855.1721633155437,675.5126431151656,876.5217025908644,819.1194022837273,798.4417821230466
1533058413.167,797.2405443851454,675.5126431151656,875.7006219034889,838.3948122738593,979.5010258098832
1533058413.171,750.3483621028844,660.4489071205535,873.2390606616028,896.2144636060335,887.4911982979155
1533058413.175,802.760262709214,662.958672625972,872.828100112855,812.6986513791645,825.1584306375219
1533058413.179,833.1045893403012,680.5373170881038,866.6729363929597,796.6336168413138,1056.678402269446
1533058413.1829998,769.6589017463505,678.0275515826853,863.3902944636983,809.4816972886613,958.723436589752
1533058413.187,722.7610698035733,678.0275515826853,864.2113751510738,799.8439922935952,902.3297282237025
1533058413.191,714.4843171477285,695.6061960448172,858.466331569806,793.4232413890325,875.6191585826093
1533058413.194,791.7264757215928,665.4684381313905,865.4417355669567,828.7571072787933,1089.3280312048835
1533058413.198,880.0024212830782,655.4242331476153,861.3388533604399,893.0040881537521,1261.481725386895
1533058413.2020001,824.8278366844563,710.6699320394293,853.5415282657937,835.184436821578,854.8415693624781
1533058413.206,703.4505301601073,715.6946060123676,864.6214952897013,719.5385555190076,768.7586433980903
1533058413.21,681.3829561848648,683.0470825935223,858.466331569806,742.024340961421,1110.1056204250146
1533058413.214,791.7264757215928,690.581522071879,847.796484684526,819.1194022837273,899.3632380132216
1533058413.218,866.2115999636808,708.160166534011,848.6175653719015,838.3948122738593,584.7329095007725
1533058413.2220001,769.6589017463505,713.1848405069492,858.0553710210582,886.5767586109675,655.9712266659913
1533058413.226,711.7272828159521,730.7583420069798,857.6452508824307,896.2144636060335,866.7136090777842
1533058413.23,714.4843171477285,753.3616604420498,844.5138427552646,758.0893754992717,676.7488158861224
1533058413.234,750.3483621028844,718.2043715177861,842.8725217906339,719.5385555190076,789.5362326182214
1533058413.2370002,794.4835100533691,678.0275515826853,844.1037226166369,761.299750951553,828.1249208480028
1533058413.2410002,717.2413514795047,693.0912875772975,844.5138427552646,758.0893754992717,673.7762468022593
1533058413.245,653.795663885554,725.7388109961428,849.4378056491568,684.2046896292468,917.1682581494896
1533058413.2489998,634.4851242420879,725.7388109961428,853.5415282657937,629.6019923875758,730.176034041691
1533058413.2529998,664.8294508731751,735.783015979918,856.4140500564275,636.0227432921386,839.9969605633089
1533058413.2570002,720.004035471797,760.8960999204065,856.0039299177998,671.3566091818993,1077.4559914895772
1533058413.2610002,609.6548662745532,750.8518949366313,854.7727290917968,655.2981532822706,1098.2335807097086
1533058413.265,524.14160470536,733.2732504744995,848.2074452332738,600.6888774023777,1211.0209974418074
1533058413.269,474.48673843080667,728.2485765015613,849.8487661979045,542.8692260702035,932.0128669486588
1533058413.2729998,438.62269347565086,748.3369864691116,856.0039299177998,443.2883793054838,979.5010258098832
1533058413.2770002,477.243772762583,753.3616604420498,860.9278928116921,417.592218410789,771.7312124819533
1533058413.28,413.79243550811617,718.2043715177861,870.3665388709691,385.4687279733095,641.126617866822
1533058413.284,358.62350057001026,715.6946060123676,874.0593009388582,362.9829425308961,1240.7041361667636
1533058413.2879999,311.7256686272333,700.6257270556542,870.7766590095966,346.9244866312673,1145.7217395709329
1533058413.292,320.00242128307815,675.5126431151656,872.4179799742275,314.8009961937879,834.063980142347
1533058413.296,391.7248615328739,678.0275515826853,869.5454581835936,321.2283257365725,1080.4224817000581
1533058413.3,430.34594081980595,700.6257270556542,859.2865718470614,340.4971570884827,759.8591727666472
1533058413.304,369.6572875576315,728.2485765015613,863.3902944636983,305.1632911987219,706.4258757376966
1533058413.3079998,267.58487101623257,718.2043715177861,863.800414602326,260.191720313895,985.4400851042274
1533058413.312,267.58487101623257,660.4489071205535,857.235130743803,263.4020957661765,976.5345355994023
1533058413.316,375.1713562211841,615.2474132125145,863.3902944636983,279.46713030402697,1024.0287733340087
1533058413.319,394.4818958646502,625.2916181962897,870.7766590095966,305.1632911987219,920.1408272333528
1533058413.323,333.7932426024757,640.3553541909018,878.1630235554951,279.46713030402697,753.9201134723031
1533058413.3270001,237.24054438514534,627.8013837017082,878.5731436941227,202.3720689817208,946.851396874446
1533058413.331,148.96459882365988,620.2669442233515,878.1630235554951,154.19012264461256,860.7745497834401
1533058413.335,206.89621775405809,610.2227392395763,886.3704687887689,176.6759080870259,1065.583951774271
1533058413.339,259.31376802090364,610.2227392395763,888.4219098920273,218.43710351957145,952.79045616879
1533058413.343,220.69268873397152,640.3553541909018,884.7291478241382,212.00977397678682,474.9119829791545
1533058413.3470001,115.86323786079633,640.3553541909018,884.7291478241382,89.94314176965368,887.4911982979155
1533058413.351,68.9654059180193,620.2669442233515,890.4741914054058,16.065034537850664,1086.3554621210203
1533058413.355,129.65405918019383,595.1538602828629,891.7045518212888,19.275409990131948,863.7410399939212
1533058413.359,179.30892545474714,580.0901242882508,899.0909163671872,67.45735632724026,866.7136090777842
1533058413.3620002,143.45053016010726,597.6687687503827,898.6807962285595,57.81965133217434,1211.0209974418074
1533058413.3660002,104.8294508731752,602.6882997612196,887.601669614772,80.30543677458766,1157.593779286239
1533058413.37,71.72244024979571,577.575215820731,885.1392679627659,48.188524975330104,848.902510068134
1533058413.3739998,137.9308118360387,557.4868058531807,887.1907090660242,61.0366054226775,525.36663205086
1533058413.3779998,259.31376802090364,557.4868058531807,886.7805889273966,157.40049809689395,528.339201134723
1533058413.3820002,270.3475550085248,597.6687687503827,879.8043445201258,170.24857854424135,884.5186292140523
1533058413.3860002,242.7602627092139,610.2227392395763,875.7006219034889,221.64747897185282,1231.7985866619385
1533058413.39,234.48351005336912,590.134329272026,868.3142573575905,279.46713030402697,1264.448215597376
1533058413.394,295.1721633155435,590.134329272026,866.2628162543322,337.2867816362013,863.7410399939212
1533058413.3979998,383.448108877029,610.2227392395763,866.6729363929597,318.0113716460693,854.8415693624781
1533058413.401,411.0354011763399,637.8455886854833,863.800414602326,330.8594520934167,1294.1313543223323
1533058413.405,424.82622249573745,645.38002816384,858.466331569806,382.25835252102803,1282.2593146070262
1533058413.409,375.1713562211841,625.2916181962897,852.3103274397906,372.6206475259621,845.936019857653
1533058413.4129999,430.34594081980595,625.2916181962897,863.3902944636983,440.0780038532024,555.0497707758162
1533058413.417,637.2421585738641,660.4489071205535,846.9762444072708,501.10803063765803,700.4928953167346
1533058413.421,673.10620352902,662.958672625972,840.0,526.8107701705746,979.5010258098832
1533058413.425,604.1407976110006,660.4489071205535,869.1353380449659,578.2030919599642,994.3456346090525
1533058413.429,606.8978319427769,667.9782036368089,867.4940170803352,594.2615478595931,866.7136090777842
1533058413.4329998,708.9645988236599,683.0470825935223,856.4140500564275,661.7189041868334,747.981054177959
1533058413.437,874.4827029590095,713.1848405069492,849.8487661979045,825.5467318265119,1050.7393429751019
1533058413.441,915.8664662382339,718.2043715177861,846.1551637198953,883.3663831586862,795.4752919125656
1533058413.444,896.555926594768,735.783015979918,844.1037226166369,896.2144636060335,650.0321673716471
1533058413.448,896.555926594768,760.8960999204065,840.4101201386277,937.975659038579,1231.7985866619385
1533058413.4520001,921.3805349017867,758.386334414988,837.1274782093661,937.975659038579,1068.550441984752
1533058413.456,1020.6902674508933,745.8272209636931,837.5375983479938,966.8821953855552,866.7136090777842
1533058413.46,1059.3113467378255,738.2927814853365,838.7687991739969,960.4614444809924,762.8256629771282
1533058413.464,1017.9332331191171,728.2485765015613,832.203515315474,973.3095249283398,739.0815835465161
1533058413.468,965.5213325127874,725.7388109961428,831.7925547667262,1011.853766270382,1068.550441984752
1533058413.4720001,968.2783668445637,710.6699320394293,843.2826419292614,1002.2160612753161,1032.9282439654517
1533058413.476,1122.7626839922923,700.6257270556542,844.9239628938922,1114.6449884873832,1148.6882297814138
1533058413.48,1158.6210792869322,720.7141370232046,844.5138427552646,1178.891969362342,1053.7058331855828
1533058413.484,1117.2429656682236,743.3174554582747,838.7687991739969,1149.978854377144,1436.6079886527698
1533058413.4870002,1175.1745845986218,745.8272209636931,806.3508191997695,1211.0088811615994,1308.9759631215015
1533058413.4910002,1177.9316189303981,728.2485765015613,810.8646619550341,1223.8635402471689,584.7329095007725
1533058413.495,1169.6548662745533,708.160166534011,845.33492344264,1220.6465861566655,590.6658899217346
1533058413.4989998,1191.7280899103116,703.1354925610726,850.6690064751599,1233.494666604013,747.981054177959
1533058413.5029998,1153.1070106233794,703.1354925610726,838.3586790353693,1239.9219961467977,718.3039943263849
1533058413.5070002,1155.8640449551558,698.1159615502357,826.8685918728339,1300.9520229312532,1059.644892479927
1533058413.5110002,1142.0732236357583,673.0028776097471,828.5099128374646,1297.7416474789718,807.3473316278717
1533058413.515,1200.0048425661564,667.9782036368089,826.0475111854585,1294.5312720266904,730.176034041691
1533058413.519,1324.1391834222818,647.8897936692586,812.5059829196648,1339.5028429115173,1086.3554621210203
1533058413.5229998,1291.0378224594183,632.8260576746464,825.2272709082032,1365.1990038062122,979.5010258098832
1533058413.526,1227.5864852049515,642.8702626584216,858.466331569806,1361.9886283539308,970.5954763050581
1533058413.53,1191.7280899103116,655.4242331476153,855.5938097791723,1397.3224942436916,923.1073174438337
1533058413.534,1241.382956184865,645.38002816384,844.9239628938922,1378.0470842535594,691.5873458119095
1533058413.5379999,1332.4159360781268,617.757178717933,844.1037226166369,1397.3224942436916,997.3121248195334
1533058413.542,1277.2413514795048,627.8013837017082,835.8962773833631,1487.2656360133453,1035.9008130493148
1533058413.546,1194.485124242088,640.3553541909018,836.7173580707386,1413.3809501433204,688.6208556014285
1533058413.55,1169.6548662745533,630.3111492071267,842.8725217906339,1378.0470842535594,575.8273599959474
1533058413.554,1238.6202721925727,617.757178717933,833.0237555927292,1435.8667355857337,617.3825384362099
1533058413.5579998,1354.4835100533692,620.2669442233515,834.2549564187324,1477.6279310182792,795.4752919125656
1533058413.562,1332.4159360781268,622.77670972877,844.1037226166369,1516.1721723603214,949.823965958309
1533058413.566,1304.8286437788158,610.2227392395763,832.203515315474,1554.7229923405855,1169.465819001545
1533058413.569,1288.280788127642,622.77670972877,821.533668430194,1541.8683332550163,1068.550441984752
1533058413.573,1307.5856781105922,627.8013837017082,831.3824346280985,1541.8683332550163,920.1408272333528
1533058413.5770001,1395.8672733325932,645.38002816384,832.203515315474,1567.571072787933,789.5362326182214
1533058413.581,1376.5567336891274,673.0028776097471,829.7411136634678,1516.1721723603214,768.7586433980903
1533058413.585,1324.1391834222818,660.4489071205535,829.3309935248401,1490.4760114656267,1003.2511841138776
1533058413.589,1302.0716094470395,667.9782036368089,821.533668430194,1512.96179690804,902.3297282237025
1533058413.593,1324.1391834222818,673.0028776097471,820.7134281529386,1509.7514214557586,1000.2786150300144
1533058413.5970001,1351.7264757215928,650.4047021367783,829.7411136634678,1445.5044405807998,1127.9106405612827
1533058413.601,1299.314575115263,637.8455886854833,831.3824346280985,1484.048681922842,875.6191585826093
1533058413.605,1249.6597088407098,627.8013837017082,830.5621943508432,1490.4760114656267,952.79045616879
1533058413.609,1216.5526982173303,625.2916181962897,824.4061902208277,1445.5044405807998,644.0991869506852
1533058413.6120002,1213.795663885554,642.8702626584216,817.0198256749294,1442.2940651285185,667.8432663812973
1533058413.6160002,1280.0040354717971,650.4047021367783,822.764869256197,1432.6563601334524,1006.2176743243585
1533058413.62,1337.9356544021953,673.0028776097471,823.1749893948247,1435.8667355857337,1012.1506547453205
1533058413.6239998,1307.5856781105922,673.0028776097471,824.8171507695755,1445.5044405807998,1166.499328791064
1533058413.6279998,1271.7272828159523,637.8455886854833,827.2787120114616,1471.2006014754945,1127.9106405612827
1533058413.6320002,1244.1399905166413,640.3553541909018,818.2510265009324,1451.9317701235843,949.823965958309
1533058413.6360002,1274.4843171477282,660.4489071205535,809.6334611290309,1426.2290305906677,923.1073174438337
1533058413.64,1307.5856781105922,660.4489071205535,804.7094982351388,1429.445984681171,845.936019857653
1533058413.644,1274.4843171477282,662.958672625972,801.0158957571294,1448.7148160330812,644.0991869506852
1533058413.6479998,1260.693495828331,675.5126431151656,793.6295312112311,1410.170574691039,632.2210683619969
1533058413.651,1216.5526982173303,670.4931121043287,787.8844876299635,1333.0755133687326,899.3632380132216
1533058413.655,1271.7272828159523,678.0275515826853,785.0119658393296,1358.7716742634275,629.254578151516
1533058413.659,1360.0032283774376,688.0717565664605,780.9090836328128,1403.7432451482543,566.9218104911223
1533058413.6629999,1271.7272828159523,652.9144676421968,782.9605247360712,1374.836708801278,857.8080595729591
1533058413.667,1219.3153822096224,640.3553541909018,784.6018457007019,1371.6263333489967,851.869000278615
1533058413.671,1205.5189112297091,665.4684381313905,775.9842803288004,1381.2574597058408,899.3632380132216
1533058413.675,1235.8632378607963,667.9782036368089,783.7807650133265,1397.3224942436916,753.9201134723031
1533058413.679,1313.1053964346606,635.335823180065,793.6295312112311,1387.6847892486255,875.6191585826093
1533058413.6829998,1260.693495828331,657.9339986530338,785.8330465267051,1355.5612988111461,1252.57617588207
1533058413.687,1197.2421585738643,665.4684381313905,782.5504045974435,1304.1689770217565,1080.4224817000581
1533058413.691,1155.8640449551558,657.9339986530338,793.2194110726034,1246.3493256895822,670.8097565917783
1533058413.694,1213.795663885554,678.0275515826853,801.4268563058773,1272.0454865842771,495.68957219928575
1533058413.698,1263.4505301601073,678.0275515826853,808.8132208517757,1300.9520229312532,970.5954763050581
1533058413.7020001,1200.0048425661564,683.0470825935223,814.5582644330433,1259.1974061369297,926.0738076543147
1533058413.706,1164.1407976110006,685.5568480989408,811.2747820936617,1194.9504252619708,697.5264051062536
1533058413.71,1111.7288970046711,670.4931121043287,802.2470965831326,1217.4362107043842,946.851396874446
1533058413.714,1128.2767526558448,670.4931121043287,808.4022603030279,1278.4662374888399,848.902510068134
1533058413.718,1208.2759455614855,683.0470825935223,819.4822273269356,1297.7416474789718,1038.8673032597958
1533058413.7220001,1158.6210792869322,657.9339986530338,825.2272709082032,1291.3143179361873,1193.2159773055394
1533058413.726,1122.7626839922923,652.9144676421968,823.9960700822002,1284.8935670316243,1107.1330513411515
1533058413.73,1133.7964709799135,667.9782036368089,810.8646619550341,1297.7416474789718,1006.2176743243585
1533058413.7329998,1084.1416047053601,652.9144676421968,814.968384571671,1281.683191579343,739.0815835465161
1533058413.7370002,1147.587292299311,652.9144676421968,821.1235482915663,1262.407781589211,727.2034649578278
1533058413.7410002,1166.897831942777,665.4684381313905,814.1473038842955,1249.5597011418636,1041.8337934702768
1533058413.745,1059.3113467378255,652.9144676421968,810.0435812676586,1233.494666604013,1175.4048782958891
1533058413.7489998,1015.1761987873407,670.4931121043287,810.0435812676586,1233.494666604013,857.8080595729591
1533058413.7529998,1023.4529514431856,698.1159615502357,810.0435812676586,1201.3777548047553,673.7762468022593
1533058413.7570002,1078.6218863812915,693.0912875772975,810.0435812676586,1188.529674357408,920.1408272333528
1533058413.7610002,1075.8648520495153,698.1159615502357,808.4022603030279,1201.3777548047553,1024.0287733340087
1533058413.765,1015.1761987873407,693.0912875772975,806.7609393383972,1172.4646398195573,795.4752919125656
1533058413.769,984.8318721562534,693.0912875772975,803.8884175477633,1137.1307739297965,516.4610825460348
1533058413.7729998,973.7924355081163,705.6504010285925,806.3508191997695,1143.5581034725813,641.126617866822
1533058413.776,1042.7634910866516,723.2290454907243,803.8884175477633,1182.1023448146234,837.0304703528279
1533058413.78,1064.831065061894,703.1354925610726,803.068177270508,1149.978854377144,914.2017679390086
1533058413.784,984.8318721562534,688.0717565664605,807.5820200257725,1060.0357126074903,1249.609685671589
1533058413.7879999,937.9340402134765,710.6699320394293,808.4022603030279,1063.2526666979936,1490.0352068083382
1533058413.792,918.6235005700104,720.7141370232046,799.7846949311264,1050.3980076124242,1282.2593146070262
1533058413.796,984.8318721562534,718.2043715177861,788.7055683173388,1050.3980076124242,1080.4224817000581
1533058413.8,1045.520525418428,713.1848405069492,785.4229263880774,1088.9488275926883,884.5186292140523
1533058413.804,1042.7634910866516,685.5568480989408,796.0919328632373,1105.0072834923171,804.3808414173907
1533058413.8079998,1006.8994461314959,683.0470825935223,814.5582644330433,1082.5214980499036,1006.2176743243585
1533058413.812,940.6910745452527,680.5373170881038,816.6097055363017,1043.9772567078614,967.6289860945772
1533058413.816,1015.1761987873407,655.4242331476153,814.1473038842955,1076.1007471453408,798.4417821230466
1533058413.819,1092.418357361205,690.581522071879,816.6097055363017,1088.9488275926883,581.7664192902915
1533058413.823,1037.2437727625831,708.160166534011,817.8409063623048,1043.9772567078614,474.9119829791545
1533058413.8270001,1006.8994461314959,690.581522071879,817.8409063623048,1076.1007471453408,762.8256629771282
1533058413.831,940.6910745452527,688.0717565664605,817.4307862236772,1037.5499271650767,605.5104987209037
1533058413.835,993.1029751515824,675.5126431151656,821.1235482915663,1043.9772567078614,875.6191585826093
1533058413.839,1183.4513372544668,670.4931121043287,820.7134281529386,1275.2558620365585,1154.627289075758
1533058413.843,1078.6218863812915,738.2927814853365,822.764869256197,1198.1608007142522,887.4911982979155
1533058413.8470001,844.1383763279224,745.8272209636931,823.9960700822002,899.4248390583149,1050.7393429751019
1533058413.851,791.7264757215928,705.6504010285925,820.3024676041908,873.7286781636201,1050.7393429751019
1533058413.855,849.658094651991,710.6699320394293,810.4545418164064,876.9390536159015,742.048073756997
1533058413.8579998,846.9010603202147,690.581522071879,795.6818127246096,703.4800996193787,837.0304703528279
1533058413.8620002,733.7948567911945,728.2485765015613,815.7886248489262,616.7473333020065,753.9201134723031
1533058413.8660002,631.7280899103115,763.405865425825,834.66507655736,568.5653869648983,721.2704845368659
1533058413.87,524.14160470536,688.0717565664605,845.33492344264,391.8960575160942,765.7921531876092
1533058413.8739998,507.58809939367023,705.6504010285925,845.33492344264,334.0764061839199,614.4160482257288
1533058413.8779998,535.1753916929812,791.0287148717321,837.9485588967416,321.2283257365725,1142.755249360452
1533058413.8820002,474.48673843080667,806.0975938284455,843.2826419292614,292.3152107513745,1294.1313543223323
1533058413.8860002,419.3121538321849,808.607359333864,838.7687991739969,285.8878812085898,1104.1665611306705
1533058413.89,408.2783668445636,793.5436233392518,823.1749893948247,276.2567548517457,1053.7058331855828
1533058413.894,455.17619878734064,730.7583420069798,810.8646619550341,359.7725670786147,1113.0721106354956
1533058413.8979998,598.6210792869321,700.6257270556542,822.3547491175693,468.98454020017857,991.3730655251893
1533058413.901,651.0386295537776,723.2290454907243,836.7173580707386,520.38344062779,955.7569463792711
1533058413.905,628.9654059180193,728.2485765015613,832.6136354541017,574.9927165076829,828.1249208480028
1533058413.909,612.4175502668455,683.0470825935223,823.5859499435725,642.4500728349232,555.0497707758162
1533058413.9129999,675.8632378607963,685.5568480989408,819.0721071883079,645.6604482872045,860.7745497834401
1533058413.917,794.4835100533691,715.6946060123676,817.8409063623048,690.6320191720314,1003.2511841138776
1533058413.921,819.3137680209037,708.160166534011,816.199585397674,758.0893754992717,742.048073756997
1533058413.925,805.5172970409903,715.6946060123676,810.0435812676586,793.4232413890325,804.3808414173907
1533058413.929,786.2067573975243,700.6257270556542,803.068177270508,793.4232413890325,1193.2159773055394
1533058413.9329998,797.2405443851454,710.6699320394293,802.2470965831326,786.9959118462479,937.9458473696209
1533058413.937,910.3467479141655,688.0717565664605,804.2993780965111,844.815563178422,691.5873458119095
1533058413.941,937.9340402134765,627.8013837017082,808.4022603030279,896.2144636060335,831.0914110584838
1533058413.944,888.2791739389231,700.6257270556542,809.6334611290309,918.700249048447,756.8866036827841
1533058413.948,835.8616236720776,745.8272209636931,805.529738512394,883.3663831586862,890.4576885083965
1533058413.9520001,844.1383763279224,748.3369864691116,801.0158957571294,880.1494290681829,893.4241787188774
1533058413.956,946.2107928693214,750.8518949366313,799.3745747924987,915.4898735961656,1196.1824675160203
1533058413.96,993.1029751515824,725.7388109961428,804.2993780965111,954.0341149382078,1077.4559914895772
1533058413.964,954.4818958646503,728.2485765015613,808.4022603030279,1011.853766270382,851.869000278615
1533058413.968,937.9340402134765,733.2732504744995,805.9406990611418,1021.491471265448,1044.80636255414
1533058413.9720001,940.6910745452527,728.2485765015613,804.2993780965111,1018.2810958131666,1119.0111699298398
1533058413.976,1042.7634910866516,705.6504010285925,806.3508191997695,1063.2526666979936,1059.644892479927
1533058413.98,1111.7288970046711,695.6061960448172,806.7609393383972,1101.7969080400358,750.9536232618221
1533058413.9829998,1045.520525418428,705.6504010285925,806.3508191997695,1072.8837930548377,780.6306831133963
1533058413.9870002,1015.1761987873407,683.0470825935223,816.199585397674,1079.3111225976222,896.3906689293584
1533058413.9910002,993.1029751515824,688.0717565664605,817.8409063623048,1082.5214980499036,792.5088017020845
1533058413.995,1031.7240544385143,705.6504010285925,815.7886248489262,1079.3111225976222,929.0463767381779
1533058413.9989998,1108.9662130123788,715.6946060123676,818.6611466395601,1124.282693482449,1121.9776601403207
1533058414.0029998,1051.0345940819807,647.8897936692586,819.0721071883079,1095.369578497251,1193.2159773055394
1533058414.0070002,979.3121538321849,612.7325047449948,817.4307862236772,1066.463042150275,1172.4383880854082
1533058414.0110002,954.4818958646503,743.3174554582747,816.199585397674,1076.1007471453408,1098.2335807097086
1533058414.015,1004.1424117997195,720.7141370232046,814.1473038842955,1101.7969080400358,943.8849066639649
1533058414.019,1075.8648520495153,655.4242331476153,812.0958627810371,1063.2526666979936,721.2704845368659
1533058414.0229998,1034.4867384308068,703.1354925610726,815.3785047102987,1034.3395517127954,869.6800992882653
1533058414.026,957.2445798569426,735.783015979918,813.7371837456678,1072.8837930548377,1119.0111699298398
1533058414.03,907.589713582389,733.2732504744995,809.6334611290309,1066.463042150275,893.4241787188774
1533058414.034,926.9002532258553,728.2485765015613,804.2993780965111,1034.3395517127954,920.1408272333528
1533058414.0379999,1015.1761987873407,708.160166534011,809.2233409904034,1060.0357126074903,804.3808414173907
1533058414.042,995.8656591438746,683.0470825935223,819.4822273269356,1114.6449884873832,623.3215977305539
1533058414.046,935.1770058817001,693.0912875772975,820.3024676041908,1092.1592030449697,825.1584306375219
1533058414.05,915.8664662382339,728.2485765015613,821.533668430194,1043.9772567078614,1077.4559914895772
1533058414.054,962.7586485204952,740.8076899528562,826.4584717342063,1050.3980076124242,1113.0721106354956
1533058414.0579998,1075.8648520495153,723.2290454907243,828.5099128374646,1088.9488275926883,937.9458473696209
1533058414.062,1051.0345940819807,700.6257270556542,823.5859499435725,1085.731873502185,976.5345355994023
1533058414.065,962.7586485204952,693.0912875772975,819.8923474655631,1082.5214980499036,1038.8673032597958
1533058414.069,926.9002532258553,718.2043715177861,819.0721071883079,1063.2526666979936,875.6191585826093
1533058414.073,926.9002532258553,713.1848405069492,823.9960700822002,1024.7018467177295,819.2193713431777
1533058414.0770001,954.4818958646503,660.4489071205535,826.8685918728339,1011.853766270382,652.9986575821281
1533058414.081,946.2107928693214,655.4242331476153,831.3824346280985,1034.3395517127954,1246.6431954611078
1533058414.085,891.0362082706993,703.1354925610726,833.8448362801047,1005.4264367275974,1463.318558293863
1533058414.089,811.0370153650589,690.581522071879,825.2272709082032,944.3964099431417,881.5521390035714
1533058414.093,764.1391834222818,657.9339986530338,831.3824346280985,899.4248390583149,658.9377168764722
1533058414.0970001,868.968634295457,703.1354925610726,840.0,860.8805977162727,718.3039943263849
1533058414.101,910.3467479141655,730.7583420069798,842.0514411032584,873.7286781636201,667.8432663812973
1533058414.105,772.4159360781267,720.7141370232046,838.3586790353693,860.8805977162727,979.5010258098832
1533058414.1079998,584.8302579675345,708.160166534011,839.5898798613723,745.2412950519242,1000.2786150300144
1533058414.1120002,493.79727807427275,693.0912875772975,851.0799670239077,623.1746628447911,673.7762468022593
1533058414.1160002,642.7618768979328,728.2485765015613,853.9524888145415,632.8123678398572,739.0815835465161
1533058414.12,739.3145751152631,753.3616604420498,858.8764517084337,716.3281800667262,522.4001418403789
1533058414.1239998,504.8310650618939,763.405865425825,867.9041372189629,549.2965556129881,454.13439375902334
1533058414.1279998,344.82702959009686,758.386334414988,855.1828492304245,366.1998966213994,730.176034041691
1533058414.1320002,325.51648994663077,713.1848405069492,851.9002073011629,388.6791034255909,792.5088017020845
1533058414.1360002,308.968634295457,673.0028776097471,858.466331569806,362.9829425308961,884.5186292140523
1533058414.14,364.13756923356294,657.9339986530338,869.9564187323414,282.67750575630845,887.4911982979155
1533058414.144,278.6243076643697,665.4684381313905,892.9357526472919,205.58244443400216,875.6191585826093
1533058414.1479998,184.8286437788158,673.0028776097471,894.1669534732949,215.2201494290682,1145.7217395709329
1533058414.151,198.61946509821323,700.6257270556542,886.3704687887689,202.3720689817208,1392.080241128644
1533058414.155,267.58487101623257,713.1848405069492,888.4219098920273,186.31361308209202,1252.57617588207
1533058414.159,333.7932426024757,690.581522071879,886.7805889273966,179.88628353930736,926.0738076543147
1533058414.1629999,292.4151289837672,660.4489071205535,888.832030030655,195.95131807715802,949.823965958309
1533058414.167,297.93484730783575,675.5126431151656,886.7805889273966,289.1048352990931,881.5521390035714
1533058414.171,306.20595030316474,652.9144676421968,882.6768663107597,330.8594520934167,730.176034041691
1533058414.175,270.3475550085248,612.7325047449948,895.3981542992981,282.67750575630845,742.048073756997
1533058414.179,286.89541065969865,647.8897936692586,895.8082744379257,298.7425402941591,973.5680453889213
1533058414.1829998,342.06999525832055,688.0717565664605,885.1392679627659,398.31680842065686,1056.678402269446
1533058414.187,336.5559265947679,680.5373170881038,878.9841042428706,369.41027207368074,1154.627289075758
1533058414.19,320.00242128307815,685.5568480989408,876.5217025908644,379.0479770687468,899.3632380132216
1533058414.194,400.00161418871875,680.5373170881038,873.6491808002305,452.9260843005498,747.981054177959
1533058414.198,493.79727807427275,652.9144676421968,874.8803816262337,472.2014942906818,857.8080595729591
1533058414.2020001,480.00080709435935,660.4489071205535,883.497946998135,481.83919928574784,492.7170031154226
1533058414.206,441.3797278074272,622.77670972877,887.1907090660242,510.745735632724,1065.583951774271
1533058414.21,441.3797278074272,587.6194208045063,878.9841042428706,568.5653869648983,1555.3344646792127
1533058414.214,582.0732236357583,595.1538602828629,853.9524888145415,674.5669846341807,834.063980142347
1533058414.218,736.5518911229708,605.1980652666381,856.0039299177998,742.024340961421,733.1425242521719
1533058414.2220001,744.8286437788158,575.0654503153125,873.2390606616028,774.1478313989004,848.902510068134
1533058414.226,736.5518911229708,600.1785342558011,870.3665388709691,876.9390536159015,837.0304703528279
1533058414.23,769.6589017463505,678.0275515826853,860.1076525344369,1008.6433908181007,943.8849066639649
1533058414.2329998,896.555926594768,703.1354925610726,825.6373910468309,1027.9122221700109,777.6641929029154
1533058414.2370002,1028.9670201067381,688.0717565664605,814.1473038842955,960.4614444809924,471.9394138952914
1533058414.2410002,1045.520525418428,680.5373170881038,838.3586790353693,1101.7969080400358,528.339201134723
1533058414.245,1048.277559750204,652.9144676421968,831.7925547667262,1230.2842911517316,988.4065753147083
1533058414.2489998,1070.3451337254467,595.1538602828629,829.3309935248401,1211.0088811615994,1116.0386008459766
1533058414.2529998,1086.8986390371365,600.1785342558011,846.9762444072708,1249.5597011418636,1050.7393429751019
1533058414.2570002,1155.8640449551558,587.6194208045063,848.6175653719015,1304.1689770217565,688.6208556014285
1533058414.2610002,1211.0386295537778,592.6440947774445,838.3586790353693,1361.9886283539308,730.176034041691
1533058414.265,1202.7618768979328,615.2474132125145,828.9200329760923,1397.3224942436916,845.936019857653
1533058414.269,1166.897831942777,617.757178717933,819.8923474655631,1352.3509233588647,932.0128669486588
1533058414.2729998,1092.418357361205,640.3553541909018,816.6097055363017,1272.0454865842771,1142.755249360452
1533058414.276,1200.0048425661564,645.38002816384,812.5059829196648,1333.0755133687326,1243.6706263772448
1533058414.28,1291.0378224594183,627.8013837017082,815.7886248489262,1419.808279686105,1276.320255312682
1533058414.284,1213.795663885554,645.38002816384,816.199585397674,1400.532869695973,964.6624958840962
1533058414.2879999,1188.9654059180193,675.5126431151656,807.9921401644002,1365.1990038062122,1089.3280312048835
1533058414.292,1147.587292299311,675.5126431151656,797.733253827868,1384.4744137963442,1053.7058331855828
1533058414.296,1205.5189112297091,655.4242331476153,793.6295312112311,1368.4093792584936,697.5264051062536
1533058414.3,1310.3483621028843,662.958672625972,795.6818127246096,1368.4093792584936,682.6817963070844
1533058414.304,1293.7948567911947,683.0470825935223,800.1956554798742,1400.532869695973,863.7410399939212
1533058414.3079998,1191.7280899103116,662.958672625972,796.0919328632373,1297.7416474789718,745.014563967478
1533058414.312,1103.452144348826,675.5126431151656,790.7570094205972,1265.6181570414924,848.902510068134
1533058414.315,1180.6943029226904,703.1354925610726,789.5258085945942,1378.0470842535594,1136.8161900661078
1533058414.319,1219.3153822096224,673.0028776097471,790.7570094205972,1345.92359381608,1157.593779286239
1533058414.323,1164.1407976110006,667.9782036368089,796.502053001865,1317.017057469104,905.2962184341835
1533058414.3270001,1150.3443266310874,683.0470825935223,793.2194110726034,1403.7432451482543,1029.9617537549707
1533058414.331,1092.418357361205,667.9782036368089,782.5504045974435,1352.3509233588647,1000.2786150300144
1533058414.335,1147.587292299311,675.5126431151656,778.4466819808066,1307.379352474038,676.7488158861224
1533058414.339,1277.2413514795048,680.5373170881038,781.7293239100682,1317.017057469104,733.1425242521719
1533058414.343,1194.485124242088,657.9339986530338,781.3192037714405,1329.8651379164512,655.9712266659913
1533058414.3470001,1111.7288970046711,665.4684381313905,788.7055683173388,1313.8001033786006,1119.0111699298398
1533058414.351,1108.9662130123788,705.6504010285925,789.1156884559665,1323.4378083736667,1335.6865327625947
1533058414.355,1086.8986390371365,678.0275515826853,789.5258085945942,1300.9520229312532,1003.2511841138776
1533058414.3579998,1136.5535053116898,645.38002816384,801.4268563058773,1259.1974061369297,477.87847318963554
1533058414.3620002,1142.0732236357583,665.4684381313905,807.171899887145,1259.1974061369297,587.6993997112535
1533058414.3660002,1117.2429656682236,673.0028776097471,807.171899887145,1294.5312720266904,860.7745497834401
1533058414.37,1081.3789207130678,642.8702626584216,800.1956554798742,1275.2558620365585,706.4258757376966
1533058414.3739998,1108.9662130123788,662.958672625972,801.4268563058773,1230.2842911517316,1080.4224817000581
1533058414.3779998,1175.1745845986218,705.6504010285925,806.3508191997695,1249.5597011418636,1190.2434082216762
1533058414.3820002,1147.587292299311,703.1354925610726,799.3745747924987,1259.1974061369297,1104.1665611306705
1533058414.3860002,1133.7964709799135,698.1159615502357,797.3231336892403,1252.770076594145,985.4400851042274
1533058414.39,1040.0008070943595,678.0275515826853,804.7094982351388,1233.494666604013,920.1408272333528
1533058414.394,984.8318721562534,667.9782036368089,805.529738512394,1169.254264367276,946.851396874446
1533058414.397,1086.8986390371365,675.5126431151656,803.068177270508,1111.4346130351018,932.0128669486588
1533058414.401,1078.6218863812915,655.4242331476153,811.2747820936617,1156.4061839199285,1121.9776601403207
1533058414.405,1040.0008070943595,650.4047021367783,818.6611466395601,1159.6165593722098,878.5856487930904
1533058414.409,1004.1424117997195,650.4047021367783,810.4545418164064,1098.5865325877544,783.6032521972594
1533058414.4129999,971.03540117634,627.8013837017082,806.7609393383972,1108.2176589445985,1092.2945214153644
1533058414.417,1040.0008070943595,615.2474132125145,807.5820200257725,1156.4061839199285,1196.1824675160203
1533058414.421,1078.6218863812915,622.77670972877,800.6057756185019,1137.1307739297965,1021.0562042501456
1533058414.425,1017.9332331191171,660.4489071205535,795.2708521758618,1079.3111225976222,955.7569463792711
1533058414.429,993.1029751515824,673.0028776097471,793.2194110726034,1043.9772567078614,825.1584306375219
1533058414.4329998,1001.3797278074272,660.4489071205535,796.502053001865,1088.9488275926883,685.6543653909475
1533058414.437,1053.7972780742728,652.9144676421968,806.3508191997695,1121.0723180301677,923.1073174438337
1533058414.44,1075.8648520495153,647.8897936692586,812.0958627810371,1079.3111225976222,1124.9441503508017
1533058414.444,993.1029751515824,665.4684381313905,811.2747820936617,1027.9122221700109,1267.4207846812392
1533058414.448,935.1770058817001,652.9144676421968,807.9921401644002,976.5199003806213,1116.0386008459766
1533058414.4520001,915.8664662382339,640.3553541909018,791.5780901079727,992.57835628025,709.3984448215598
1533058414.456,1012.4135147950485,662.958672625972,781.7293239100682,982.9472299234059,934.9793571591398
1533058414.46,1026.209985774962,657.9339986530338,795.6818127246096,976.5199003806213,917.1682581494896
1533058414.464,926.9002532258553,662.958672625972,798.5543345152435,1024.7018467177295,857.8080595729591
1533058414.468,910.3467479141655,675.5126431151656,785.4229263880774,1024.7018467177295,1249.609685671589
1533058414.4720001,860.6918816396122,667.9782036368089,778.4466819808066,989.3679808279686,816.2528811326968
1533058414.476,844.1383763279224,622.77670972877,787.4743674913358,947.6067853954231,474.9119829791545
1533058414.48,926.9002532258553,620.2669442233515,794.0396513498588,921.9106245007283,923.1073174438337
1533058414.4829998,971.03540117634,665.4684381313905,787.0642473527081,899.4248390583149,1024.0287733340087
1533058414.4870002,910.3467479141655,662.958672625972,780.9090836328128,915.4898735961656,875.6191585826093
1533058414.4910002,833.1045893403012,640.3553541909018,790.3468892819697,941.1860344908604,914.2017679390086
1533058414.495,868.968634295457,620.2669442233515,801.0158957571294,912.2729195056623,819.2193713431777
1533058414.4989998,937.9340402134765,627.8013837017082,797.3231336892403,889.7871340632489,866.7136090777842
1533058414.5029998,935.1770058817001,655.4242331476153,796.9121731404925,889.7871340632489,890.4576885083965
1533058414.5070002,899.3129609265442,635.335823180065,807.9921401644002,970.0925708378365,923.1073174438337
1533058414.5110002,863.4489159713885,610.2227392395763,818.2510265009324,976.5199003806213,1083.3889719105393
1533058414.515,888.2791739389231,630.3111492071267,822.764869256197,918.700249048447,1012.1506547453205
1533058414.519,951.724861532874,637.8455886854833,828.5099128374646,957.2444903904892,765.7921531876092
1533058414.522,973.7924355081163,652.9144676421968,835.4861572447354,954.0341149382078,955.7569463792711
1533058414.526,915.8664662382339,650.4047021367783,837.5375983479938,931.5483294957944,1015.1232238291836
1533058414.53,833.1045893403012,652.9144676421968,840.0,960.4614444809924,762.8256629771282
1533058414.534,866.2115999636808,680.5373170881038,839.1789193126245,860.8805977162727,834.063980142347
1533058414.5379999,943.4481088770291,667.9782036368089,842.0514411032584,790.2128659367511,1136.8161900661078
1533058414.542,915.8664662382339,660.4489071205535,863.3902944636983,893.0040881537521,979.5010258098832
1533058414.546,874.4827029590095,650.4047021367783,865.8526961157045,934.7587049480758,896.3906689293584
1533058414.55,830.347555008525,647.8897936692586,849.8487661979045,921.9106245007283,1095.2610116258454
1533058414.554,841.3813419961461,660.4489071205535,854.3626089531691,876.9390536159015,1092.2945214153644
1533058414.5579998,935.1770058817001,660.4489071205535,865.031615428329,867.3013486208355,1095.2610116258454
1533058414.562,973.7924355081163,665.4684381313905,865.031615428329,963.6718199332738,1166.499328791064
1533058414.565,929.6572875576315,667.9782036368089,862.1590936376952,1034.3395517127954,1083.3889719105393
1533058414.569,885.5164899466309,670.4931121043287,857.6452508824307,1002.2160612753161,839.9969605633089
1533058414.573,885.5164899466309,683.0470825935223,853.9524888145415,1008.6433908181007,658.9377168764722
1533058414.5770001,976.5551195004084,685.5568480989408,850.6690064751599,1015.0641417226634,932.0128669486588
1533058414.581,1009.6564804632721,673.0028776097471,851.4900871625354,999.0056858230346,1086.3554621210203
1533058414.585,935.1770058817001,675.5126431151656,851.9002073011629,1047.1876321601428,979.5010258098832
1533058414.589,880.0024212830782,667.9782036368089,848.2074452332738,1034.3395517127954,863.7410399939212
1533058414.593,849.658094651991,650.4047021367783,847.796484684526,982.9472299234059,700.4928953167346
1533058414.5970001,896.555926594768,640.3553541909018,846.565283858523,979.7302758329026,638.160127656341
1533058414.601,960.0016141887188,632.8260576746464,843.2826419292614,979.7302758329026,558.0162609862972
1533058414.605,924.137569233563,622.77670972877,848.2074452332738,982.9472299234059,774.6977026924343
1533058414.6079998,857.9348473078359,625.2916181962897,854.3626089531691,995.7953103707532,730.176034041691
1533058414.6120002,816.5510840286115,652.9144676421968,851.4900871625354,960.4614444809924,427.41774524454803
1533058414.6160002,877.245386951302,670.4931121043287,846.9762444072708,944.3964099431417,709.3984448215598
1533058414.62,971.03540117634,693.0912875772975,849.4378056491568,960.4614444809924,834.063980142347
1533058414.6239998,935.1770058817001,713.1848405069492,841.2312008260031,899.4248390583149,822.1858615536587
1533058414.6279998,877.245386951302,695.6061960448172,844.5138427552646,925.1209999530097,1071.516932195233
1533058414.6320002,827.5905206767486,667.9782036368089,861.7489734990676,989.3679808279686,893.4241787188774
1533058414.6360002,855.1721633155437,655.4242331476153,860.9278928116921,976.5199003806213,848.902510068134
1533058414.64,946.2107928693214,662.958672625972,864.2113751510738,1018.2810958131666,860.7745497834401
1533058414.644,918.6235005700104,655.4242331476153,873.6491808002305,1024.7018467177295,1038.8673032597958
1533058414.647,863.4489159713885,642.8702626584216,866.2628162543322,992.57835628025,1121.9776601403207
1533058414.651,844.1383763279224,652.9144676421968,860.9278928116921,941.1860344908604,813.2863909222158
1533058414.655,868.968634295457,660.4489071205535,862.9801743250706,912.2729195056623,750.9536232618221
1533058414.659,946.2107928693214,657.9339986530338,869.9564187323414,1002.2160612753161,774.6977026924343
1533058414.6629999,915.8664662382339,655.4242331476153,874.8803816262337,1063.2526666979936,881.5521390035714
1533058414.667,852.4151289837673,655.4242331476153,874.0593009388582,1005.4264367275974,724.2369747473468
1533058414.671,841.3813419961461,645.38002816384,868.3142573575905,937.975659038579,546.1442212709911
1533058414.675,855.1721633155437,647.8897936692586,871.5977396969721,931.5483294957944,718.3039943263849
1533058414.679,918.6235005700104,657.9339986530338,883.0878268595075,999.0056858230346,1219.9265469466325
1533058414.6829998,915.8664662382339,640.3553541909018,884.3181872753904,1031.129176260514,1202.1154479369823
1533058414.687,907.589713582389,673.0028776097471,877.7529034168674,1008.6433908181007,869.6800992882653
1533058414.69,871.7256686272334,688.0717565664605,871.1867791482243,995.7953103707532,1015.1232238291836
1533058414.694,833.1045893403012,665.4684381313905,876.931822729492,979.7302758329026,1184.3104278007143
1533058414.698,921.3805349017867,673.0028776097471,880.6254252075013,976.5199003806213,1009.1841645348395
1533058414.7020001,946.2107928693214,690.581522071879,881.8566260335043,1015.0641417226634,617.3825384362099
1533058414.706,874.4827029590095,688.0717565664605,884.7291478241382,1008.6433908181007,457.1008839695043
1533058414.71,808.2799810332825,665.4684381313905,888.0117897533996,1043.9772567078614,679.7153060966034
1533058414.714,855.1721633155437,678.0275515826853,885.5493881013934,1060.0357126074903,1026.9952635444897
1533058414.718,943.4481088770291,698.1159615502357,879.3942243814981,1021.491471265448,819.2193713431777
1533058414.7220001,960.0016141887188,685.5568480989408,882.266746172132,1034.3395517127954,641.126617866822
1533058414.726,935.1770058817001,680.5373170881038,881.4456654847565,1060.0357126074903,756.8866036827841
1533058414.7289999,885.5164899466309,683.0470825935223,880.2153050688736,1072.8837930548377,940.9184164534839
1533058414.7329998,871.7256686272334,690.581522071879,886.7805889273966,970.0925708378365,982.4735948937464
1533058414.7370002,863.4489159713885,670.4931121043287,887.601669614772,947.6067853954231,937.9458473696209
