timestamps,TP9,AF7,AF8,TP10,Right AUX
1533059192.4989998,683.0856482697054,840.0,990.3188393299847,437.71064484235967,807.6944283988865
1533059192.5029998,627.6952160899018,768.5145322236262,937.2608705025115,424.8313742722179,1020.3851809063696
1533059192.5070002,566.1544924644227,786.3767484421979,937.2608705025115,463.4560035153246,1020.3851809063696
1533059192.5110002,443.08564826970553,840.0,866.5289844137365,437.71064484235967,1211.5388856797772
1533059192.515,516.9269547865357,857.8622162185716,725.0652122361869,405.51905965066453,1305.7703618127393
1533059192.519,707.699417108649,911.4854677763738,725.0652122361869,411.95210370207616,1327.3074095468148
1533059192.522,676.9227537677888,893.6232515578021,707.3912949748853,437.71064484235967,955.7685238670375
1533059192.526,492.3131859475923,840.0,618.9492745812404,379.7737009776996,839.9999999999998
1533059192.53,332.31738696633937,857.8622162185716,618.9492745812404,251.03372514555633,893.8481331722941
1533059192.534,449.235939715381,893.6232515578021,636.6594088861103,283.2253103372514,858.8462952265922
1533059192.5379999,640.0084020374941,857.8622162185716,672.0072434087136,354.0283423047346,1111.9203906947432
1533059192.542,547.7036181273959,822.1377837814284,778.1231810636601,360.46138635614625,1173.8462952265922
1533059192.546,455.38623116105657,965.1087193341758,813.4710155862632,334.7160276831813,635.3870188520714
1533059192.55,350.7808643596073,893.6232515578021,778.1231810636601,276.7922662858398,465.7703618127394
1533059192.554,467.69941710864884,857.8622162185716,760.4492638023586,302.53762495880466,977.3055716011131
1533059192.5579998,689.2359397153809,1054.456403329121,689.6811606700153,392.65297154784133,848.0777713595545
1533059192.562,627.6952160899018,1125.9784740075822,548.2173884924656,399.08601559925296,971.924066586147
1533059192.565,541.5407236254791,1179.5651226632967,548.2173884924656,360.46138635614625,1364.9999999999998
1533059192.569,375.3946331985507,1054.456403329121,530.543471231164,328.2829836317697,1111.9203906947432
1533059192.573,455.38623116105657,1054.456403329121,406.7536163149158,321.84993958035807,985.3833429606677
1533059192.5770001,670.7724623221131,1197.4639417839558,512.8695539698623,347.595298253323,980.0018379457016
1533059192.581,658.471879430762,1143.8406902261536,618.9492745812404,373.340656926288,899.2296381872602
1533059192.585,615.3946331985507,1072.35522244978,707.3912949748853,405.51905965066453,845.3815050149659
1533059192.589,498.46347739326785,1054.456403329121,760.4492638023586,495.6344062397012,699.998162054298
1533059192.593,473.8497085543244,1072.35522244978,848.8550671524349,540.6920795342195,850.7685238670375
1533059192.5970001,646.1586934831697,1072.35522244978,990.3188393299847,514.9467208612546,1076.9240665861469
1533059192.601,676.9227537677888,1000.8697546734063,1025.702890896156,553.5713501043612,918.0759334138527
1533059192.605,640.0084020374941,982.9709355527474,1061.0507254187598,662.9858288476327,969.2278002415584
1533059192.6079998,590.7808643596073,1018.731970891978,1007.9927565912865,669.4320553663628,1297.6925904531847
1533059192.6120002,572.3173869663394,1000.8697546734063,901.9130359799082,630.807426123256,1203.4611143202224
1533059192.6160002,750.7766633408602,1054.456403329121,937.2608705025115,656.552784796221,1009.6166570393318
1533059192.62,701.5491256629733,1000.8697546734063,1202.5507146398775,560.0043941557728,891.1518668277055
1533059192.6239998,566.1544924644227,982.9709355527474,1237.8985491624808,579.3167087773262,721.540723625479
1533059192.6279998,473.8497085543244,965.1087193341758,1273.2826007286524,605.0620674502911,1044.6129811479282
1533059192.6320002,498.46347739326785,786.3767484421979,1290.9565179899541,637.2404701746677,1235.7666859213357
1533059192.6360002,775.3904321798036,965.1087193341758,1114.1086942462327,753.1011754366691,1111.9203906947432
1533059192.64,793.8539095730715,1125.9784740075822,1131.7826115075345,637.2404701746677,891.1518668277055
1533059192.644,603.0814472509584,1000.8697546734063,1131.7826115075345,521.3797649126661,506.15370477340736
1533059192.647,504.6263718951846,875.7610353392305,1131.7826115075345,527.8128089640778,931.540723625479
1533059192.651,393.84550753557744,536.1593097738463,1273.2826007286524,617.9281555531144,1192.6925904531847
1533059192.655,627.6952160899018,268.07965488692315,1397.0724556449009,765.9804460068109,955.7685238670375
1533059192.659,818.467678412015,500.43487733670315,1149.4927458124043,650.1197407448094,926.1537047734074
1533059192.6629999,609.2317386966339,697.0290644472526,866.5289844137365,489.2013621882896,1039.2314761329621
1533059192.667,566.1544924644227,750.6523160050547,725.0652122361869,476.32209161814785,858.8462952265922
1533059192.671,492.3131859475923,1036.5941871105495,512.8695539698623,386.20674502911123,732.3092474925168
1533059192.675,584.6179698576905,1215.3261580025273,371.36956474874427,386.20674502911123,980.0018379457016
1533059192.679,701.5491256629733,1108.0796548869232,618.9492745812404,502.06745029111283,877.6925904531847
1533059192.6829998,578.467678412015,857.8622162185716,884.2029016750382,540.6920795342195,702.6944283988865
1533059192.687,578.467678412015,714.8912806658242,937.2608705025115,527.8128089640778,907.3074095468149
1533059192.69,473.8497085543244,822.1377837814284,990.3188393299847,566.4374382071844,1106.5388856797772
1533059192.694,424.6221708764376,1036.5941871105495,884.2029016750382,489.2013621882896,1085.0018379457017
1533059192.698,615.3946331985507,1143.8406902261536,672.0072434087136,399.08601559925296,726.9222286404452
1533059192.7020001,701.5491256629733,1358.2970935552748,512.8695539698623,476.32209161814785,699.998162054298
1533059192.706,609.2317386966339,1429.7825613316484,406.7536163149158,457.00977699659455,778.0740954681509
1533059192.71,350.7808643596073,1322.5726611181315,442.1014508375191,321.84993958035807,683.8481331722941
1533059192.714,295.39043217980367,1215.3261580025273,636.6594088861103,315.40371306162797,1111.9203906947432
1533059192.718,553.8539095730716,1143.8406902261536,707.3912949748853,411.95210370207616,899.2296381872602
1533059192.7220001,646.1586934831697,1125.9784740075822,689.6811606700153,444.1436888937713,980.0018379457016
1533059192.726,627.6952160899018,1215.3261580025273,760.4492638023586,386.20674502911123,998.8481331722941
1533059192.73,541.5407236254791,1286.811625778901,689.6811606700153,308.97066901021634,861.5370477340754
1533059192.7329998,535.3904321798036,1233.188374221099,654.3333261474121,347.595298253323,1408.0740954681507
1533059192.7370002,750.7766633408602,1251.0505904396705,760.4492638023586,437.71064484235967,1553.457438428819
1533059192.7410002,769.240140734128,1215.3261580025273,901.9130359799082,418.39833022080626,1224.998162054298
1533059192.745,572.3173869663394,1036.5941871105495,1007.9927565912865,379.7737009776996,912.6944283988865
1533059192.7489998,443.08564826970553,875.7610353392305,1114.1086942462327,457.00977699659455,1192.6925904531847
1533059192.7529998,529.240140734128,840.0,1096.4347769849312,534.2590354828079,1303.0740954681507
1533059192.7570002,763.0772462322113,1054.456403329121,884.2029016750382,540.6920795342195,1206.1518668277056
1533059192.7610002,750.7766633408602,1179.5651226632967,848.8550671524349,489.2013621882896,1090.3833429606677
1533059192.765,572.3173869663394,1090.2174386683516,919.5869532412097,392.65297154784133,1181.9240665861469
1533059192.769,430.7724623221131,1036.5941871105495,937.2608705025115,386.20674502911123,901.9203906947433
1533059192.772,461.5491256629734,1072.35522244978,866.5289844137365,457.00977699659455,697.3074095468149
1533059192.776,726.1628945019168,1143.8406902261536,795.7970983249618,482.76831813687795,926.1537047734074
1533059192.78,769.240140734128,1143.8406902261536,795.7970983249618,508.51367680984293,1004.2296381872602
1533059192.784,652.3089849288452,1036.5941871105495,919.5869532412097,540.6920795342195,996.1518668277055
1533059192.7879999,566.1544924644227,929.3476839949453,919.5869532412097,502.06745029111283,823.8444572808904
1533059192.792,535.3904321798036,947.2465031156041,707.3912949748853,457.00977699659455,850.7685238670375
1533059192.796,726.1628945019168,965.1087193341758,601.2753573199387,431.2644183236295,775.3833429606677
1533059192.8,800.004201018747,1036.5941871105495,548.2173884924656,457.00977699659455,713.4629522659243
1533059192.804,695.3862311610567,1161.7029064447252,512.8695539698623,514.9467208612546,955.7685238670375
1533059192.8079998,609.2317386966339,1161.7029064447252,442.1014508375191,469.8890475667362,764.61481909363
1533059192.812,510.7766633408602,1197.4639417839558,336.021730226141,347.595298253323,565.3833429606677
1533059192.815,707.699417108649,1233.188374221099,371.36956474874427,373.340656926288,958.4592763745206
1533059192.819,756.9269547865357,1090.2174386683516,459.81158514238905,328.2829836317697,939.6129811479282
1533059192.823,584.6179698576905,893.6232515578021,565.8913057537673,289.658354388663,891.1518668277055
1533059192.8270001,516.9269547865357,840.0,742.7391294974885,354.0283423047346,988.0740954681509
1533059192.831,492.3131859475923,732.7534968843959,919.5869532412097,476.32209161814785,1165.7685238670376
1533059192.835,652.3089849288452,822.1377837814284,848.8550671524349,598.6290233988794,1071.5370477340753
1533059192.839,726.1628945019168,1108.0796548869232,530.543471231164,579.3167087773262,694.6166570393318
1533059192.843,646.1586934831697,1072.35522244978,512.8695539698623,598.6290233988794,721.540723625479
1533059192.8470001,560.004201018747,982.9709355527474,654.3333261474121,643.6866966933978,888.4611143202225
1533059192.851,350.7808643596073,929.3476839949453,618.9492745812404,534.2590354828079,745.7685238670375
1533059192.8539999,387.69521608990186,822.1377837814284,618.9492745812404,495.6344062397012,616.540723625479
1533059192.8579998,701.5491256629733,804.2389646607695,778.1231810636601,662.9858288476327,823.8444572808904
1533059192.8620002,806.1544924644227,875.7610353392305,813.4710155862632,778.8465341096341,848.0777713595545
1533059192.8660002,695.3862311610567,982.9709355527474,707.3912949748853,669.4320553663628,770.0018379457016
1533059192.87,535.3904321798036,1072.35522244978,583.6014400586371,560.0043941557728,740.3870188520714
1533059192.8739998,572.3173869663394,1072.35522244978,495.15941966499236,534.2590354828079,1055.381505014966
1533059192.8779998,763.0772462322113,1018.731970891978,530.543471231164,553.5713501043612,926.1537047734074
1533059192.8820002,800.004201018747,1000.8697546734063,583.6014400586371,579.3167087773262,783.4611143202225
1533059192.8860002,701.5491256629733,1036.5941871105495,672.0072434087136,508.51367680984293,918.0759334138527
1533059192.89,480.0,1036.5941871105495,601.2753573199387,373.340656926288,807.6944283988865
1533059192.894,449.235939715381,1143.8406902261536,442.1014508375191,276.7922662858398,990.7703618127393
1533059192.897,720.0,1268.9494095603295,336.021730226141,392.65297154784133,1085.0018379457017
1533059192.901,756.9269547865357,1233.188374221099,477.4855024036907,437.71064484235967,1060.7685238670376
1533059192.905,596.9311558052827,1179.5651226632967,707.3912949748853,386.20674502911123,1173.8462952265922
1533059192.909,510.7766633408602,1215.3261580025273,742.7391294974885,366.8944304075579,1071.5370477340753
1533059192.9129999,455.38623116105657,1233.188374221099,725.0652122361869,366.8944304075579,1171.1555427191092
1533059192.917,596.9311558052827,1197.4639417839558,813.4710155862632,431.2644183236295,1074.2278002415583
1533059192.921,750.7766633408602,1125.9784740075822,919.5869532412097,514.9467208612546,826.540723625479
1533059192.925,713.8497085543245,1268.9494095603295,848.8550671524349,598.6290233988794,856.1555427191092
1533059192.929,578.467678412015,1465.543596670879,689.6811606700153,508.51367680984293,821.1537047734074
1533059192.9329998,486.1628945019167,1394.0581288945052,689.6811606700153,437.71064484235967,864.2278002415584
1533059192.937,695.3862311610567,1268.9494095603295,813.4710155862632,495.6344062397012,947.6907525074829
1533059192.94,787.6910150711548,1358.2970935552748,866.5289844137365,534.2590354828079,1068.8462952265922
1533059192.944,689.2359397153809,1304.6738419974727,919.5869532412097,534.2590354828079,1114.6166570393318
1533059192.948,584.6179698576905,1108.0796548869232,1025.702890896156,489.2013621882896,1163.0777713595544
1533059192.9520001,461.5491256629734,1125.9784740075822,972.6449220686828,431.2644183236295,1144.2314761329621
1533059192.956,676.9227537677888,1197.4639417839558,831.1811498911333,444.1436888937713,942.3092474925168
1533059192.96,855.3946331985507,1197.4639417839558,672.0072434087136,476.32209161814785,934.231476132962
1533059192.964,750.7766633408602,1197.4639417839558,778.1231810636601,476.32209161814785,1014.998162054298
1533059192.968,615.3946331985507,1108.0796548869232,937.2608705025115,424.8313742722179,831.9222286404452
1533059192.9720001,516.9269547865357,1090.2174386683516,725.0652122361869,366.8944304075579,839.9999999999998
1533059192.976,627.6952160899018,1108.0796548869232,654.3333261474121,392.65297154784133,761.924066586147
1533059192.9789999,763.0772462322113,1233.188374221099,778.1231810636601,431.2644183236295,651.5370477340754
1533059192.9829998,744.6263718951845,1286.811625778901,795.7970983249618,476.32209161814785,990.7703618127393
1533059192.9870002,627.6952160899018,1286.811625778901,725.0652122361869,495.6344062397012,1383.8462952265922
1533059192.9910002,504.6263718951846,1358.2970935552748,601.2753573199387,457.00977699659455,931.540723625479
1533059192.995,627.6952160899018,1322.5726611181315,495.15941966499236,431.2644183236295,632.6907525074829
1533059192.9989998,793.8539095730715,1215.3261580025273,548.2173884924656,405.51905965066453,1055.381505014966
1533059193.0029998,769.240140734128,1233.188374221099,707.3912949748853,469.8890475667362,1189.9963241085961
1533059193.0070002,701.5491256629733,1233.188374221099,725.0652122361869,495.6344062397012,1262.690752507483
1533059193.0110002,547.7036181273959,1072.35522244978,672.0072434087136,411.95210370207616,1198.0740954681507
1533059193.015,566.1544924644227,911.4854677763738,742.7391294974885,386.20674502911123,716.1537047734074
1533059193.019,738.4634773932679,947.2465031156041,778.1231810636601,418.39833022080626,761.924066586147
1533059193.022,701.5491256629733,982.9709355527474,778.1231810636601,463.4560035153246,1071.5370477340753
1533059193.026,640.0084020374941,929.3476839949453,831.1811498911333,502.06745029111283,923.4629522659243
1533059193.03,523.0772462322113,875.7610353392305,848.8550671524349,476.32209161814785,791.5388856797772
1533059193.034,553.8539095730716,786.3767484421979,742.7391294974885,437.71064484235967,764.61481909363
1533059193.0379999,756.9269547865357,732.7534968843959,760.4492638023586,450.5767329451829,560.0018379457016
1533059193.042,676.9227537677888,607.64477755022,778.1231810636601,424.8313742722179,643.4592763745206
1533059193.046,553.8539095730716,643.4058128894505,866.5289844137365,424.8313742722179,988.0740954681509
1533059193.05,480.0,840.0,972.6449220686828,457.00977699659455,877.6925904531847
1533059193.054,523.0772462322113,911.4854677763738,937.2608705025115,463.4560035153246,495.3851809063696
1533059193.0579998,726.1628945019168,786.3767484421979,866.5289844137365,489.2013621882896,732.3092474925168
1533059193.062,769.240140734128,732.7534968843959,848.8550671524349,495.6344062397012,901.9203906947433
1533059193.065,633.8455075355773,786.3767484421979,813.4710155862632,450.5767329451829,934.231476132962
1533059193.069,480.0,840.0,707.3912949748853,411.95210370207616,990.7703618127393
1533059193.073,467.69941710864884,750.6523160050547,707.3912949748853,418.39833022080626,1249.2314761329621
1533059193.0770001,609.2317386966339,661.2680291080221,778.1231810636601,418.39833022080626,1289.6148190936299
1533059193.081,670.7724623221131,697.0290644472526,760.4492638023586,424.8313742722179,1095.7703618127393
1533059193.085,652.3089849288452,768.5145322236262,742.7391294974885,469.8890475667362,848.0777713595545
1533059193.089,523.0772462322113,732.7534968843959,654.3333261474121,405.51905965066453,594.998162054298
1533059193.093,473.8497085543244,750.6523160050547,618.9492745812404,360.46138635614625,541.1555427191092
1533059193.0970001,664.6221708764375,822.1377837814284,672.0072434087136,431.2644183236295,810.3851809063696
1533059193.101,769.240140734128,822.1377837814284,742.7391294974885,502.06745029111283,969.2278002415584
1533059193.1039999,695.3862311610567,857.8622162185716,760.4492638023586,534.2590354828079,966.5370477340754
1533059193.1079998,560.004201018747,911.4854677763738,689.6811606700153,495.6344062397012,1055.381505014966
1533059193.1120002,560.004201018747,732.7534968843959,813.4710155862632,534.2590354828079,934.231476132962
1533059193.1160002,787.6910150711548,554.021525992418,990.3188393299847,611.4951115017027,990.7703618127393
1533059193.12,904.6221708764375,714.8912806658242,919.5869532412097,617.9281555531144,1076.9240665861469
1533059193.1239998,843.0814472509584,1018.731970891978,760.4492638023586,598.6290233988794,861.5370477340754
1533059193.1279998,683.0856482697054,1161.7029064447252,548.2173884924656,521.3797649126661,543.8462952265922
1533059193.1320002,455.38623116105657,1215.3261580025273,530.543471231164,405.51905965066453,756.5370477340754
1533059193.1360002,541.5407236254791,1215.3261580025273,548.2173884924656,405.51905965066453,1300.383342960668
1533059193.14,775.3904321798036,1179.5651226632967,618.9492745812404,527.8128089640778,1149.6129811479282
1533059193.144,713.8497085543245,1072.35522244978,795.7970983249618,560.0043941557728,756.5370477340754
1533059193.147,621.5449246442262,1072.35522244978,760.4492638023586,534.2590354828079,845.3815050149659
1533059193.151,498.46347739326785,1036.5941871105495,742.7391294974885,534.2590354828079,931.540723625479
1533059193.155,560.004201018747,982.9709355527474,778.1231810636601,521.3797649126661,1171.1555427191092
1533059193.159,781.5407236254791,1108.0796548869232,795.7970983249618,527.8128089640778,1058.0777713595544
1533059193.1629999,787.6910150711548,1179.5651226632967,707.3912949748853,547.1251235856311,761.924066586147
1533059193.167,701.5491256629733,1090.2174386683516,725.0652122361869,540.6920795342195,875.0018379457016
1533059193.171,553.8539095730716,1054.456403329121,831.1811498911333,508.51367680984293,893.8481331722941
1533059193.175,535.3904321798036,929.3476839949453,884.2029016750382,482.76831813687795,1017.6889145617811
1533059193.179,726.1628945019168,911.4854677763738,990.3188393299847,560.0043941557728,1068.8462952265922
1533059193.1829998,689.2359397153809,947.2465031156041,1043.3768081574578,572.8704822585961,551.924066586147
1533059193.186,553.8539095730716,857.8622162185716,1114.1086942462327,553.5713501043612,619.231476132962
1533059193.19,480.0,857.8622162185716,1255.5724664237825,572.8704822585961,729.6129811479282
1533059193.194,541.5407236254791,893.6232515578021,1220.2246319011792,534.2590354828079,794.2296381872602
1533059193.198,769.240140734128,947.2465031156041,1131.7826115075345,521.3797649126661,982.6925904531847
1533059193.2020001,800.004201018747,982.9709355527474,1149.4927458124043,521.3797649126661,985.3833429606677
1533059193.206,713.8497085543245,1054.456403329121,1096.4347769849312,514.9467208612546,1160.381505014966
1533059193.21,652.3089849288452,1143.8406902261536,1096.4347769849312,534.2590354828079,969.2278002415584
1533059193.214,640.0084020374941,1090.2174386683516,990.3188393299847,495.6344062397012,842.6907525074829
1533059193.218,787.6910150711548,1054.456403329121,919.5869532412097,508.51367680984293,1246.5352097883735
1533059193.2220001,800.004201018747,1000.8697546734063,1025.702890896156,579.3167087773262,1222.3074095468148
1533059193.226,640.0084020374941,1000.8697546734063,954.9710048073814,585.7497528287378,1074.2278002415583
1533059193.2289999,553.8539095730716,1018.731970891978,919.5869532412097,592.1827968801495,1060.7685238670376
1533059193.2329998,510.7766633408602,982.9709355527474,866.5289844137365,547.1251235856311,1130.7666859213357
1533059193.2370002,713.8497085543245,1054.456403329121,866.5289844137365,624.3743820718445,1103.8481331722942
1533059193.2410002,873.8455075355773,1251.0505904396705,866.5289844137365,708.0435021421509,788.8481331722941
1533059193.245,763.0772462322113,1322.5726611181315,919.5869532412097,637.2404701746677,656.924066586147
1533059193.2489998,578.467678412015,1197.4639417839558,937.2608705025115,585.7497528287378,901.9203906947433
1533059193.2529998,615.3946331985507,1179.5651226632967,760.4492638023586,611.4951115017027,993.4611143202225
1533059193.2570002,904.6221708764375,1197.4639417839558,512.8695539698623,669.4320553663628,918.0759334138527
1533059193.2610002,941.5491256629733,1251.0505904396705,601.2753573199387,605.0620674502911,702.6944283988865
1533059193.265,769.240140734128,1340.434877336703,689.6811606700153,514.9467208612546,907.3074095468149
1533059193.269,498.46347739326785,1322.5726611181315,654.3333261474121,379.7737009776996,1063.4592763745206
1533059193.272,326.1544924644227,982.9709355527474,972.6449220686828,399.08601559925296,786.1518668277055
1533059193.276,676.9227537677888,750.6523160050547,1202.5507146398775,708.0435021421509,834.6129811479282
1533059193.28,627.6952160899018,1090.2174386683516,831.1811498911333,405.51905965066453,780.7703618127393
1533059193.284,455.38623116105657,1501.2680291080221,336.021730226141,154.4853345051081,834.6129811479282
1533059193.2879999,621.5449246442262,1626.3767484421978,300.63767865996937,444.1436888937713,780.7703618127393
1533059193.292,350.7808643596073,1429.7825613316484,565.8913057537673,321.84993958035807,1049.9999999999998
1533059193.296,387.69521608990186,1233.188374221099,583.6014400586371,263.91299571569806,1276.155542719109
1533059193.3,720.0,1072.35522244978,742.7391294974885,489.2013621882896,845.3815050149659
1533059193.304,572.3173869663394,965.1087193341758,1007.9927565912865,469.8890475667362,608.4629522659243
1533059193.3079998,381.5449246442263,1000.8697546734063,1131.7826115075345,289.658354388663,778.0740954681509
1533059193.311,227.6994171086489,857.8622162185716,1273.2826007286524,244.60068109414473,821.1537047734074
1533059193.315,406.1586934831697,679.1302453265937,1414.7463729062022,495.6344062397012,1023.0759334138527
1533059193.319,861.5449246442262,732.7534968843959,1556.210145083752,804.6050752499176,1192.6925904531847
1533059193.323,744.6263718951845,1054.456403329121,1432.420290167504,611.4951115017027,1044.6129811479282
1533059193.3270001,553.8539095730716,1340.434877336703,954.9710048073814,392.65297154784133,918.0759334138527
1533059193.331,560.004201018747,1411.9203451130768,831.1811498911333,534.2590354828079,1001.5388856797772
1533059193.335,492.3131859475923,1304.6738419974727,1114.1086942462327,482.76831813687795,1246.5352097883735
1533059193.339,584.6179698576905,1215.3261580025273,1131.7826115075345,386.20674502911123,1351.5352097883735
1533059193.343,664.6221708764375,1215.3261580025273,1007.9927565912865,450.5767329451829,1243.8444572808903
1533059193.3470001,578.467678412015,1161.7029064447252,1114.1086942462327,437.71064484235967,1074.2278002415583
1533059193.351,350.7808643596073,1018.731970891978,1308.6304352512557,321.84993958035807,1130.7666859213357
1533059193.3539999,350.7808643596073,875.7610353392305,1450.0942074288055,341.14907173459295,1039.2314761329621
1533059193.3579998,683.0856482697054,840.0,1485.478258994977,534.2590354828079,980.0018379457016
1533059193.3620002,812.3173869663395,982.9709355527474,1255.5724664237825,566.4374382071844,713.4629522659243
1533059193.3660002,701.5491256629733,1215.3261580025273,1025.702890896156,463.4560035153246,734.9999999999998
1533059193.37,553.8539095730716,1108.0796548869232,937.2608705025115,399.08601559925296,980.0018379457016
1533059193.3739998,510.7766633408602,929.3476839949453,919.5869532412097,379.7737009776996,912.6944283988865
1533059193.3779998,670.7724623221131,1072.35522244978,884.2029016750382,373.340656926288,845.3815050149659
1533059193.3820002,781.5407236254791,1054.456403329121,919.5869532412097,444.1436888937713,1052.6907525074828
1533059193.3860002,763.0772462322113,982.9709355527474,884.2029016750382,560.0043941557728,1009.6166570393318
1533059193.39,596.9311558052827,1108.0796548869232,831.1811498911333,566.4374382071844,1006.9203906947433
1533059193.394,412.30898492884535,1125.9784740075822,778.1231810636601,373.340656926288,883.0740954681509
1533059193.397,560.004201018747,1161.7029064447252,831.1811498911333,366.8944304075579,732.3092474925168
1533059193.401,707.699417108649,1108.0796548869232,901.9130359799082,450.5767329451829,893.8481331722941
1533059193.405,541.5407236254791,965.1087193341758,901.9130359799082,341.14907173459295,920.7666859213357
1533059193.409,406.1586934831697,893.6232515578021,1061.0507254187598,328.2829836317697,1117.3074095468148
1533059193.4129999,467.69941710864884,911.4854677763738,1025.702890896156,444.1436888937713,842.6907525074829
1533059193.417,689.2359397153809,822.1377837814284,919.5869532412097,527.8128089640778,656.924066586147
1533059193.421,775.3904321798036,697.0290644472526,954.9710048073814,585.7497528287378,883.0740954681509
1533059193.425,689.2359397153809,661.2680291080221,990.3188393299847,643.6866966933978,654.2333140786639
1533059193.429,553.8539095730716,571.9203451130768,972.6449220686828,598.6290233988794,796.9203906947433
1533059193.4329998,498.46347739326785,679.1302453265937,919.5869532412097,534.2590354828079,1235.7666859213357
1533059193.436,609.2317386966339,679.1302453265937,795.7970983249618,476.32209161814785,1224.998162054298
1533059193.44,695.3862311610567,768.5145322236262,654.3333261474121,450.5767329451829,1270.7685238670376
1533059193.444,664.6221708764375,965.1087193341758,512.8695539698623,476.32209161814785,1348.8444572808905
1533059193.448,480.0,893.6232515578021,583.6014400586371,405.51905965066453,1286.9240665861469
1533059193.4520001,307.70361812739594,857.8622162185716,742.7391294974885,315.40371306162797,1001.5388856797772
1533059193.456,406.1586934831697,893.6232515578021,813.4710155862632,354.0283423047346,1014.998162054298
1533059193.46,553.8539095730716,840.0,1007.9927565912865,444.1436888937713,1200.7703618127393
1533059193.464,652.3089849288452,697.0290644472526,1290.9565179899541,669.4320553663628,656.924066586147
1533059193.468,646.1586934831697,643.4058128894505,1432.420290167504,746.6681313852577,839.9999999999998
1533059193.4720001,455.38623116105657,929.3476839949453,1167.166663073706,553.5713501043612,982.6925904531847
1533059193.476,480.0,1090.2174386683516,972.6449220686828,437.71064484235967,1023.0759334138527
1533059193.4789999,646.1586934831697,840.0,1131.7826115075345,508.51367680984293,1133.4629522659243
1533059193.4829998,584.6179698576905,643.4058128894505,1344.0144868174273,605.0620674502911,969.2278002415584
1533059193.4870002,578.467678412015,732.7534968843959,1237.8985491624808,637.2404701746677,1141.5352097883735
1533059193.4910002,498.46347739326785,1000.8697546734063,831.1811498911333,560.0043941557728,1219.6166570393318
1533059193.495,412.30898492884535,1000.8697546734063,618.9492745812404,411.95210370207616,899.2296381872602
1533059193.4989998,603.0814472509584,857.8622162185716,618.9492745812404,399.08601559925296,745.7685238670375
1533059193.5029998,787.6910150711548,875.7610353392305,565.8913057537673,566.4374382071844,1009.6166570393318
1533059193.5070002,750.7766633408602,947.2465031156041,583.6014400586371,650.1197407448094,818.4629522659243
1533059193.5110002,529.240140734128,1036.5941871105495,760.4492638023586,572.8704822585961,907.3074095468149
1533059193.515,516.9269547865357,893.6232515578021,866.5289844137365,547.1251235856311,770.0018379457016
1533059193.519,738.4634773932679,679.1302453265937,866.5289844137365,572.8704822585961,866.924066586147
1533059193.522,812.3173869663395,643.4058128894505,884.2029016750382,605.0620674502911,1125.3851809063697
1533059193.526,732.3131859475923,697.0290644472526,972.6449220686828,643.6866966933978,718.8444572808904
1533059193.53,633.8455075355773,643.4058128894505,1007.9927565912865,675.8650994177743,694.6166570393318
1533059193.534,676.9227537677888,714.8912806658242,919.5869532412097,656.552784796221,1093.0740954681507
1533059193.5379999,830.7682613033661,875.7610353392305,636.6594088861103,572.8704822585961,1106.5388856797772
1533059193.542,880.0084020374941,1072.35522244978,530.543471231164,624.3743820718445,786.1518668277055
1533059193.546,818.467678412015,1197.4639417839558,725.0652122361869,656.552784796221,605.7666859213357
1533059193.55,738.4634773932679,1179.5651226632967,831.1811498911333,630.807426123256,869.61481909363
1533059193.554,738.4634773932679,1268.9494095603295,778.1231810636601,662.9858288476327,1176.5370477340755
1533059193.5579998,824.6179698576905,1143.8406902261536,778.1231810636601,669.4320553663628,982.6925904531847
1533059193.561,818.467678412015,1018.731970891978,795.7970983249618,624.3743820718445,934.231476132962
1533059193.565,812.3173869663395,1000.8697546734063,866.5289844137365,708.0435021421509,883.0740954681509
1533059193.569,689.2359397153809,947.2465031156041,866.5289844137365,630.807426123256,823.8444572808904
1533059193.573,541.5407236254791,965.1087193341758,795.7970983249618,527.8128089640778,963.8462952265922
1533059193.5770001,720.0,857.8622162185716,901.9130359799082,566.4374382071844,936.9222286404452
1533059193.581,898.471879430762,929.3476839949453,866.5289844137365,592.1827968801495,891.1518668277055
1533059193.585,898.471879430762,1179.5651226632967,725.0652122361869,656.552784796221,751.1555427191092
1533059193.589,664.6221708764375,1251.0505904396705,725.0652122361869,566.4374382071844,691.9203906947433
1533059193.593,449.235939715381,1072.35522244978,795.7970983249618,463.4560035153246,648.8462952265922
1533059193.5970001,701.5491256629733,982.9709355527474,919.5869532412097,605.0620674502911,823.8444572808904
1533059193.601,904.6221708764375,1143.8406902261536,778.1231810636601,695.1774140393277,980.0018379457016
1533059193.6039999,855.3946331985507,1465.543596670879,601.2753573199387,656.552784796221,1001.5388856797772
1533059193.6079998,646.1586934831697,1376.1593097738464,618.9492745812404,527.8128089640778,1101.1518668277056
1533059193.6120002,461.5491256629734,982.9709355527474,760.4492638023586,444.1436888937713,907.3074095468149
1533059193.6160002,658.471879430762,911.4854677763738,884.2029016750382,521.3797649126661,651.5370477340754
1533059193.62,898.471879430762,1215.3261580025273,831.1811498911333,579.3167087773262,686.5388856797772
1533059193.6239998,793.8539095730715,1394.0581288945052,654.3333261474121,527.8128089640778,850.7685238670375
1533059193.6279998,652.3089849288452,1322.5726611181315,530.543471231164,431.2644183236295,872.3055716011131
1533059193.6320002,615.3946331985507,1304.6738419974727,548.2173884924656,457.00977699659455,691.9203906947433
1533059193.6360002,670.7724623221131,1215.3261580025273,636.6594088861103,527.8128089640778,821.1537047734074
1533059193.64,701.5491256629733,1000.8697546734063,831.1811498911333,463.4560035153246,1138.8444572808903
1533059193.643,695.3862311610567,893.6232515578021,884.2029016750382,463.4560035153246,966.5370477340754
1533059193.647,640.0084020374941,804.2389646607695,884.2029016750382,514.9467208612546,694.6166570393318
1533059193.651,443.08564826970553,643.4058128894505,848.8550671524349,444.1436888937713,681.1518668277055
1533059193.655,541.5407236254791,679.1302453265937,707.3912949748853,437.71064484235967,823.8444572808904
1533059193.659,750.7766633408602,786.3767484421979,565.8913057537673,379.7737009776996,918.0759334138527
1533059193.6629999,726.1628945019168,911.4854677763738,459.81158514238905,328.2829836317697,1243.8444572808903
1533059193.667,683.0856482697054,875.7610353392305,512.8695539698623,373.340656926288,1319.2296381872602
1533059193.671,467.69941710864884,750.6523160050547,583.6014400586371,399.08601559925296,1041.9222286404452
1533059193.675,381.5449246442263,840.0,707.3912949748853,405.51905965066453,936.9222286404452
1533059193.679,633.8455075355773,947.2465031156041,919.5869532412097,476.32209161814785,786.1518668277055
1533059193.6829998,726.1628945019168,822.1377837814284,901.9130359799082,572.8704822585961,1141.5352097883735
1533059193.686,713.8497085543245,714.8912806658242,884.2029016750382,708.0435021421509,1391.9240665861469
1533059193.69,615.3946331985507,768.5145322236262,954.9710048073814,662.9858288476327,831.9222286404452
1533059193.694,516.9269547865357,714.8912806658242,1025.702890896156,547.1251235856311,573.4611143202225
1533059193.698,707.699417108649,661.2680291080221,1167.166663073706,669.4320553663628,772.6925904531847
1533059193.7020001,880.0084020374941,840.0,1078.7608597236292,791.7258046797758,734.9999999999998
1533059193.706,873.8455075355773,965.1087193341758,848.8550671524349,759.5474019553993,702.6944283988865
1533059193.71,738.4634773932679,1018.731970891978,919.5869532412097,624.3743820718445,764.61481909363
1533059193.714,529.240140734128,1018.731970891978,1043.3768081574578,469.8890475667362,770.0018379457016
1533059193.718,738.4634773932679,857.8622162185716,1114.1086942462327,553.5713501043612,920.7666859213357
1533059193.7220001,904.6221708764375,679.1302453265937,1237.8985491624808,708.0435021421509,1055.381505014966
1533059193.726,806.1544924644227,697.0290644472526,1220.2246319011792,753.1011754366691,1036.5352097883735
1533059193.7289999,646.1586934831697,1018.731970891978,1043.3768081574578,617.9281555531144,1192.6925904531847
1533059193.7329998,412.30898492884535,1322.5726611181315,884.2029016750382,444.1436888937713,1273.4592763745206
1533059193.7370002,572.3173869663394,1268.9494095603295,831.1811498911333,553.5713501043612,1033.8444572808903
1533059193.7410002,658.471879430762,1125.9784740075822,937.2608705025115,592.1827968801495,864.2278002415584
1533059193.745,412.30898492884535,1090.2174386683516,1025.702890896156,450.5767329451829,955.7685238670375
1533059193.7489998,418.471879430762,1018.731970891978,1007.9927565912865,514.9467208612546,1060.7685238670376
1533059193.7529998,541.5407236254791,982.9709355527474,1114.1086942462327,656.552784796221,963.8462952265922
1533059193.7570002,713.8497085543245,1143.8406902261536,1078.7608597236292,669.4320553663628,1017.6889145617811
1533059193.7610002,769.240140734128,1090.2174386683516,1007.9927565912865,637.2404701746677,931.540723625479
1533059193.765,676.9227537677888,929.3476839949453,1131.7826115075345,682.298143469186,452.30557160111306
1533059193.768,658.471879430762,875.7610353392305,1220.2246319011792,740.235087333846,791.5388856797772
1533059193.772,584.6179698576905,1018.731970891978,1149.4927458124043,688.7443699879161,963.8462952265922
1533059193.776,590.7808643596073,1179.5651226632967,1025.702890896156,579.3167087773262,880.3833429606677
1533059193.78,756.9269547865357,1090.2174386683516,954.9710048073814,579.3167087773262,786.1518668277055
1533059193.784,775.3904321798036,982.9709355527474,1096.4347769849312,669.4320553663628,678.4611143202225
1533059193.7879999,646.1586934831697,929.3476839949453,1237.8985491624808,708.0435021421509,996.1518668277055
1533059193.792,443.08564826970553,1072.35522244978,1078.7608597236292,540.6920795342195,1090.3833429606677
1533059193.796,504.6263718951846,1161.7029064447252,672.0072434087136,424.8313742722179,904.6166570393318
1533059193.8,763.0772462322113,1215.3261580025273,654.3333261474121,547.1251235856311,912.6944283988865
1533059193.804,750.7766633408602,1197.4639417839558,813.4710155862632,630.807426123256,1238.4629522659243
1533059193.8079998,596.9311558052827,1018.731970891978,813.4710155862632,592.1827968801495,818.4629522659243
1533059193.811,455.38623116105657,893.6232515578021,689.6811606700153,502.06745029111283,813.0759334138527
1533059193.815,492.3131859475923,804.2389646607695,636.6594088861103,540.6920795342195,1085.0018379457017
1533059193.819,781.5407236254791,804.2389646607695,601.2753573199387,630.807426123256,1020.3851809063696
1533059193.823,793.8539095730715,840.0,495.15941966499236,617.9281555531144,858.8462952265922
1533059193.8270001,640.0084020374941,804.2389646607695,512.8695539698623,598.6290233988794,953.0777713595545
1533059193.831,560.004201018747,786.3767484421979,601.2753573199387,624.3743820718445,1265.381505014966
1533059193.835,541.5407236254791,840.0,565.8913057537673,521.3797649126661,1165.7685238670376
1533059193.839,640.0084020374941,750.6523160050547,512.8695539698623,366.8944304075579,842.6907525074829
1533059193.843,689.2359397153809,750.6523160050547,672.0072434087136,424.8313742722179,689.2296381872602
1533059193.8470001,689.2359397153809,1090.2174386683516,689.6811606700153,534.2590354828079,912.6944283988865
1533059193.851,621.5449246442262,1304.6738419974727,477.4855024036907,482.76831813687795,1141.5352097883735
1533059193.8539999,670.7724623221131,1268.9494095603295,300.63767865996937,469.8890475667362,1171.1555427191092
1533059193.8579998,892.3089849288452,1197.4639417839558,353.6956474874426,547.1251235856311,1109.2296381872602
1533059193.8620002,966.1628945019168,1108.0796548869232,583.6014400586371,688.7443699879161,971.924066586147
1533059193.8660002,910.7724623221131,1072.35522244978,654.3333261474121,708.0435021421509,1047.3092474925168
1533059193.87,744.6263718951845,1143.8406902261536,565.8913057537673,579.3167087773262,1128.0759334138527
1533059193.8739998,633.8455075355773,1215.3261580025273,495.15941966499236,527.8128089640778,1192.6925904531847
1533059193.8779998,818.467678412015,1233.188374221099,565.8913057537673,534.2590354828079,1233.0759334138527
1533059193.8820002,886.1586934831697,1322.5726611181315,707.3912949748853,547.1251235856311,1195.3833429606677
1533059193.8860002,781.5407236254791,1197.4639417839558,831.1811498911333,566.4374382071844,969.2278002415584
1533059193.89,713.8497085543245,1161.7029064447252,954.9710048073814,585.7497528287378,993.4611143202225
1533059193.893,615.3946331985507,1268.9494095603295,778.1231810636601,489.2013621882896,1265.381505014966
1533059193.897,683.0856482697054,1161.7029064447252,636.6594088861103,431.2644183236295,1004.2296381872602
1533059193.901,818.467678412015,1233.188374221099,725.0652122361869,489.2013621882896,823.8444572808904
1533059193.905,707.699417108649,1394.0581288945052,636.6594088861103,457.00977699659455,958.4592763745206
1533059193.909,566.1544924644227,1501.2680291080221,530.543471231164,386.20674502911123,1071.5370477340753
1533059193.9129999,455.38623116105657,1358.2970935552748,565.8913057537673,379.7737009776996,845.3815050149659
1533059193.917,523.0772462322113,1108.0796548869232,654.3333261474121,360.46138635614625,939.6129811479282
1533059193.921,695.3862311610567,947.2465031156041,636.6594088861103,321.84993958035807,990.7703618127393
1533059193.925,621.5449246442262,1054.456403329121,618.9492745812404,296.09139844007467,1017.6889145617811
1533059193.929,492.3131859475923,1251.0505904396705,636.6594088861103,231.73459299132148,1079.61481909363
1533059193.9329998,455.38623116105657,1251.0505904396705,565.8913057537673,193.10996374821482,1103.8481331722942
1533059193.936,566.1544924644227,1179.5651226632967,548.2173884924656,296.09139844007467,923.4629522659243
1533059193.94,738.4634773932679,1197.4639417839558,601.2753573199387,418.39833022080626,869.61481909363
1533059193.944,683.0856482697054,1018.731970891978,813.4710155862632,476.32209161814785,1122.688914561781
1533059193.948,541.5407236254791,982.9709355527474,937.2608705025115,508.51367680984293,1173.8462952265922
1533059193.9520001,406.1586934831697,982.9709355527474,919.5869532412097,489.2013621882896,1154.9999999999998
1533059193.956,455.38623116105657,840.0,919.5869532412097,489.2013621882896,1273.4592763745206
1533059193.96,720.0,1000.8697546734063,831.1811498911333,579.3167087773262,1023.0759334138527
1533059193.964,750.7766633408602,1286.811625778901,636.6594088861103,605.0620674502911,947.6907525074829
1533059193.968,633.8455075355773,1340.434877336703,548.2173884924656,514.9467208612546,802.3074095468149
1533059193.9720001,480.0,1286.811625778901,601.2753573199387,450.5767329451829,818.4629522659243
1533059193.975,473.8497085543244,1233.188374221099,725.0652122361869,418.39833022080626,1017.6889145617811
1533059193.9789999,720.0,1215.3261580025273,778.1231810636601,431.2644183236295,1114.6166570393318
1533059193.9829998,781.5407236254791,1268.9494095603295,583.6014400586371,489.2013621882896,1117.3074095468148
1533059193.9870002,695.3862311610567,1411.9203451130768,495.15941966499236,508.51367680984293,788.8481331722941
1533059193.9910002,566.1544924644227,1519.166848228681,459.81158514238905,476.32209161814785,503.4629522659243
1533059193.995,516.9269547865357,1429.7825613316484,459.81158514238905,431.2644183236295,866.924066586147
1533059193.9989998,738.4634773932679,1429.7825613316484,636.6594088861103,502.06745029111283,1173.8462952265922
1533059194.0029998,818.467678412015,1519.166848228681,689.6811606700153,585.7497528287378,988.0740954681509
1533059194.0070002,701.5491256629733,1465.543596670879,866.5289844137365,560.0043941557728,875.0018379457016
1533059194.0110002,609.2317386966339,1447.6813804523074,1061.0507254187598,502.06745029111283,839.9999999999998
1533059194.015,609.2317386966339,1376.1593097738464,937.2608705025115,527.8128089640778,1052.6907525074828
1533059194.018,756.9269547865357,1215.3261580025273,848.8550671524349,585.7497528287378,883.0740954681509
1533059194.022,756.9269547865357,1197.4639417839558,795.7970983249618,547.1251235856311,691.9203906947433
1533059194.026,603.0814472509584,1268.9494095603295,742.7391294974885,463.4560035153246,743.0777713595545
1533059194.03,516.9269547865357,1286.811625778901,725.0652122361869,469.8890475667362,592.3074095468149
1533059194.034,504.6263718951846,1286.811625778901,760.4492638023586,489.2013621882896,487.3074095468149
1533059194.0379999,713.8497085543245,1233.188374221099,848.8550671524349,553.5713501043612,689.2296381872602
1533059194.042,830.7682613033661,1143.8406902261536,954.9710048073814,617.9281555531144,743.0777713595545
1533059194.046,683.0856482697054,1072.35522244978,884.2029016750382,592.1827968801495,718.8444572808904
1533059194.05,566.1544924644227,1000.8697546734063,813.4710155862632,579.3167087773262,1041.9222286404452
1533059194.054,547.7036181273959,1018.731970891978,813.4710155862632,611.4951115017027,942.3092474925168
1533059194.0579998,652.3089849288452,947.2465031156041,689.6811606700153,572.8704822585961,850.7685238670375
1533059194.061,756.9269547865357,857.8622162185716,707.3912949748853,547.1251235856311,915.3851809063696
1533059194.065,695.3862311610567,875.7610353392305,831.1811498911333,553.5713501043612,966.5370477340754
1533059194.069,572.3173869663394,822.1377837814284,848.8550671524349,482.76831813687795,748.4592763745206
1533059194.073,480.0,875.7610353392305,831.1811498911333,431.2644183236295,875.0018379457016
1533059194.0770001,609.2317386966339,965.1087193341758,795.7970983249618,437.71064484235967,996.1518668277055
1533059194.081,756.9269547865357,1000.8697546734063,831.1811498911333,476.32209161814785,764.61481909363
1533059194.085,732.3131859475923,1000.8697546734063,919.5869532412097,502.06745029111283,936.9222286404452
1533059194.089,609.2317386966339,1036.5941871105495,937.2608705025115,502.06745029111283,1122.688914561781
1533059194.093,387.69521608990186,1018.731970891978,1025.702890896156,495.6344062397012,1173.8462952265922
1533059194.0970001,467.69941710864884,947.2465031156041,1096.4347769849312,527.8128089640778,1014.998162054298
1533059194.1,707.699417108649,911.4854677763738,1114.1086942462327,566.4374382071844,1058.0777713595544
1533059194.1039999,683.0856482697054,1018.731970891978,1167.166663073706,585.7497528287378,1445.766685921336
1533059194.1079998,547.7036181273959,1090.2174386683516,1184.8405803350076,553.5713501043612,1343.4629522659243
1533059194.1120002,455.38623116105657,1054.456403329121,1273.2826007286524,489.2013621882896,1068.8462952265922
1533059194.1160002,529.240140734128,982.9709355527474,1237.8985491624808,476.32209161814785,845.3815050149659
1533059194.12,664.6221708764375,1108.0796548869232,1202.5507146398775,444.1436888937713,751.1555427191092
1533059194.1239998,596.9311558052827,1251.0505904396705,1131.7826115075345,373.340656926288,1014.998162054298
1533059194.1279998,492.3131859475923,1197.4639417839558,1007.9927565912865,334.7160276831813,1101.1518668277056
1533059194.1320002,369.231738696634,1179.5651226632967,1007.9927565912865,257.47995166428643,837.3092474925168
1533059194.1360002,406.1586934831697,1197.4639417839558,1043.3768081574578,244.60068109414473,710.7666859213357
1533059194.14,658.471879430762,1197.4639417839558,1061.0507254187598,347.595298253323,1020.3851809063696
1533059194.143,640.0084020374941,1233.188374221099,1043.3768081574578,386.20674502911123,1076.9240665861469
1533059194.147,498.46347739326785,1215.3261580025273,1043.3768081574578,347.595298253323,581.5388856797772
1533059194.151,418.471879430762,1179.5651226632967,1043.3768081574578,334.7160276831813,875.0018379457016
1533059194.155,424.6221708764376,1215.3261580025273,1025.702890896156,315.40371306162797,1359.6129811479282
1533059194.159,633.8455075355773,1143.8406902261536,972.6449220686828,392.65297154784133,875.0018379457016
1533059194.1629999,701.5491256629733,1161.7029064447252,1061.0507254187598,489.2013621882896,842.6907525074829
1533059194.167,572.3173869663394,1197.4639417839558,1149.4927458124043,547.1251235856311,912.6944283988865
1533059194.171,523.0772462322113,1179.5651226632967,1255.5724664237825,598.6290233988794,775.3833429606677
1533059194.175,492.3131859475923,1143.8406902261536,1202.5507146398775,508.51367680984293,1023.0759334138527
1533059194.179,621.5449246442262,1018.731970891978,1061.0507254187598,482.76831813687795,1216.9203906947432
1533059194.1829998,689.2359397153809,982.9709355527474,1202.5507146398775,527.8128089640778,1224.998162054298
1533059194.186,578.467678412015,1054.456403329121,1220.2246319011792,534.2590354828079,934.231476132962
1533059194.19,523.0772462322113,1072.35522244978,1061.0507254187598,489.2013621882896,471.15186682770553
1533059194.194,480.0,1125.9784740075822,1061.0507254187598,476.32209161814785,713.4629522659243
1533059194.198,652.3089849288452,1090.2174386683516,1096.4347769849312,566.4374382071844,1103.8481331722942
1533059194.2020001,781.5407236254791,1054.456403329121,1114.1086942462327,611.4951115017027,880.3833429606677
1533059194.206,646.1586934831697,965.1087193341758,1061.0507254187598,547.1251235856311,842.6907525074829
1533059194.21,498.46347739326785,911.4854677763738,990.3188393299847,476.32209161814785,1012.3074095468149
1533059194.214,406.1586934831697,857.8622162185716,1043.3768081574578,392.65297154784133,985.3833429606677
1533059194.218,529.240140734128,804.2389646607695,1061.0507254187598,321.84993958035807,915.3851809063696
1533059194.2220001,603.0814472509584,911.4854677763738,990.3188393299847,354.0283423047346,643.4592763745206
1533059194.225,449.235939715381,804.2389646607695,937.2608705025115,302.53762495880466,799.6166570393318
1533059194.2289999,356.93115580528286,679.1302453265937,954.9710048073814,270.34603976710963,1039.2314761329621
1533059194.2329998,313.8539095730715,732.7534968843959,990.3188393299847,289.658354388663,1044.6129811479282
1533059194.2370002,436.92275376778866,750.6523160050547,990.3188393299847,289.658354388663,1006.9203906947433
1533059194.2410002,603.0814472509584,714.8912806658242,1025.702890896156,373.340656926288,958.4592763745206
1533059194.245,560.004201018747,697.0290644472526,1096.4347769849312,450.5767329451829,909.998162054298
1533059194.2489998,480.0,661.2680291080221,1078.7608597236292,469.8890475667362,619.231476132962
1533059194.2529998,350.7808643596073,589.7825613316485,1114.1086942462327,444.1436888937713,788.8481331722941
1533059194.2570002,480.0,661.2680291080221,1096.4347769849312,476.32209161814785,780.7703618127393
1533059194.2610002,713.8497085543245,822.1377837814284,1114.1086942462327,560.0043941557728,753.8462952265922
1533059194.265,566.1544924644227,679.1302453265937,1184.8405803350076,534.2590354828079,1128.0759334138527
1533059194.268,406.1586934831697,536.1593097738463,1149.4927458124043,476.32209161814785,1251.9222286404452
1533059194.272,363.08144725095843,571.9203451130768,1114.1086942462327,489.2013621882896,1014.998162054298
1533059194.276,406.1586934831697,714.8912806658242,1061.0507254187598,457.00977699659455,883.0740954681509
1533059194.28,578.467678412015,911.4854677763738,1025.702890896156,444.1436888937713,939.6129811479282
1533059194.284,633.8455075355773,965.1087193341758,1078.7608597236292,527.8128089640778,953.0777713595545
1533059194.2879999,547.7036181273959,929.3476839949453,1061.0507254187598,502.06745029111283,1144.2314761329621
1533059194.292,369.231738696634,840.0,1061.0507254187598,411.95210370207616,804.998162054298
1533059194.296,307.70361812739594,840.0,1114.1086942462327,392.65297154784133,848.0777713595545
1533059194.3,560.004201018747,893.6232515578021,1131.7826115075345,463.4560035153246,1014.998162054298
1533059194.304,633.8455075355773,875.7610353392305,1025.702890896156,521.3797649126661,856.1555427191092
1533059194.3070002,480.0,840.0,972.6449220686828,527.8128089640778,861.5370477340754
1533059194.311,350.7808643596073,875.7610353392305,954.9710048073814,476.32209161814785,759.2333140786639
1533059194.315,375.3946331985507,893.6232515578021,831.1811498911333,457.00977699659455,541.1555427191092
1533059194.319,615.3946331985507,786.3767484421979,866.5289844137365,540.6920795342195,519.6129811479282
1533059194.323,646.1586934831697,750.6523160050547,831.1811498911333,540.6920795342195,845.3815050149659
1533059194.3270001,553.8539095730716,840.0,848.8550671524349,489.2013621882896,1079.61481909363
1533059194.331,480.0,1000.8697546734063,919.5869532412097,502.06745029111283,861.5370477340754
1533059194.335,430.7724623221131,1072.35522244978,813.4710155862632,476.32209161814785,654.2333140786639
1533059194.339,590.7808643596073,1090.2174386683516,848.8550671524349,482.76831813687795,708.0759334138527
1533059194.343,676.9227537677888,1108.0796548869232,884.2029016750382,514.9467208612546,1001.5388856797772
1533059194.3470001,640.0084020374941,1125.9784740075822,884.2029016750382,527.8128089640778,1111.9203906947432
1533059194.35,498.46347739326785,1179.5651226632967,901.9130359799082,482.76831813687795,926.1537047734074
1533059194.3539999,363.08144725095843,1233.188374221099,901.9130359799082,354.0283423047346,875.0018379457016
1533059194.3579998,510.7766633408602,1143.8406902261536,866.5289844137365,347.595298253323,939.6129811479282
1533059194.3620002,652.3089849288452,1233.188374221099,901.9130359799082,450.5767329451829,988.0740954681509
1533059194.3660002,560.004201018747,1358.2970935552748,954.9710048073814,495.6344062397012,1238.4629522659243
1533059194.37,443.08564826970553,1286.811625778901,866.5289844137365,502.06745029111283,1074.2278002415583
1533059194.3739998,369.231738696634,1251.0505904396705,795.7970983249618,469.8890475667362,823.8444572808904
1533059194.3779998,523.0772462322113,1215.3261580025273,884.2029016750382,469.8890475667362,678.4611143202225
1533059194.3820002,744.6263718951845,1197.4639417839558,954.9710048073814,527.8128089640778,1025.7666859213357
1533059194.3860002,738.4634773932679,1143.8406902261536,972.6449220686828,605.0620674502911,1101.1518668277056
1533059194.39,566.1544924644227,1072.35522244978,1043.3768081574578,579.3167087773262,783.4611143202225
1533059194.393,387.69521608990186,1018.731970891978,1167.166663073706,502.06745029111283,918.0759334138527
1533059194.397,492.3131859475923,947.2465031156041,1131.7826115075345,489.2013621882896,796.9203906947433
1533059194.401,689.2359397153809,1054.456403329121,954.9710048073814,553.5713501043612,786.1518668277055
1533059194.405,713.8497085543245,1251.0505904396705,813.4710155862632,656.552784796221,837.3092474925168
1533059194.409,541.5407236254791,1215.3261580025273,831.1811498911333,592.1827968801495,901.9203906947433
1533059194.4129999,350.7808643596073,1108.0796548869232,866.5289844137365,482.76831813687795,1025.7666859213357
1533059194.417,467.69941710864884,1036.5941871105495,972.6449220686828,527.8128089640778,944.9999999999998
1533059194.421,720.0,1054.456403329121,972.6449220686828,572.8704822585961,982.6925904531847
1533059194.425,781.5407236254791,1125.9784740075822,866.5289844137365,553.5713501043612,837.3092474925168
1533059194.429,756.9269547865357,1197.4639417839558,866.5289844137365,540.6920795342195,487.3074095468149
1533059194.4320002,652.3089849288452,1268.9494095603295,866.5289844137365,508.51367680984293,737.6907525074829
1533059194.436,676.9227537677888,1251.0505904396705,901.9130359799082,495.6344062397012,877.6925904531847
1533059194.44,855.3946331985507,1125.9784740075822,990.3188393299847,560.0043941557728,600.3851809063696
1533059194.444,793.8539095730715,1090.2174386683516,972.6449220686828,643.6866966933978,788.8481331722941
1533059194.448,683.0856482697054,1090.2174386683516,1007.9927565912865,688.7443699879161,1066.1555427191092
1533059194.4520001,621.5449246442262,1161.7029064447252,937.2608705025115,662.9858288476327,1367.6907525074828
1533059194.456,646.1586934831697,1286.811625778901,778.1231810636601,637.2404701746677,1445.766685921336
1533059194.46,880.0084020374941,1304.6738419974727,742.7391294974885,650.1197407448094,955.7685238670375
1533059194.464,929.2359397153809,1268.9494095603295,831.1811498911333,637.2404701746677,1082.3055716011131
1533059194.468,750.7766633408602,1215.3261580025273,901.9130359799082,592.1827968801495,1044.6129811479282
1533059194.4720001,590.7808643596073,1197.4639417839558,760.4492638023586,547.1251235856311,770.0018379457016
1533059194.475,547.7036181273959,1286.811625778901,654.3333261474121,482.76831813687795,1163.0777713595544
1533059194.4789999,664.6221708764375,1233.188374221099,725.0652122361869,431.2644183236295,1386.5370477340755
1533059194.4829998,633.8455075355773,1125.9784740075822,884.2029016750382,450.5767329451829,947.6907525074829
1533059194.4870002,523.0772462322113,1072.35522244978,884.2029016750382,431.2644183236295,813.0759334138527
1533059194.4910002,492.3131859475923,1108.0796548869232,901.9130359799082,411.95210370207616,974.61481909363
1533059194.495,436.92275376778866,1072.35522244978,919.5869532412097,308.97066901021634,961.1555427191092
1533059194.4989998,578.467678412015,1018.731970891978,813.4710155862632,218.85532242117978,1216.9203906947432
1533059194.5029998,713.8497085543245,1036.5941871105495,866.5289844137365,289.658354388663,1012.3074095468149
1533059194.5070002,652.3089849288452,1090.2174386683516,884.2029016750382,334.7160276831813,1014.998162054298
1533059194.5110002,560.004201018747,1197.4639417839558,866.5289844137365,315.40371306162797,1063.4592763745206
1533059194.515,510.7766633408602,1143.8406902261536,831.1811498911333,392.65297154784133,893.8481331722941
1533059194.518,658.471879430762,1000.8697546734063,795.7970983249618,508.51367680984293,839.9999999999998
1533059194.522,800.004201018747,947.2465031156041,866.5289844137365,560.0043941557728,928.8444572808904
1533059194.526,732.3131859475923,947.2465031156041,954.9710048073814,617.9281555531144,1144.2314761329621
1533059194.53,652.3089849288452,1054.456403329121,919.5869532412097,624.3743820718445,1109.2296381872602
1533059194.534,566.1544924644227,1036.5941871105495,778.1231810636601,560.0043941557728,810.3851809063696
1533059194.5379999,658.471879430762,893.6232515578021,636.6594088861103,534.2590354828079,678.4611143202225
1533059194.542,843.0814472509584,1000.8697546734063,707.3912949748853,611.4951115017027,993.4611143202225
1533059194.546,824.6179698576905,1108.0796548869232,707.3912949748853,643.6866966933978,909.998162054298
1533059194.55,670.7724623221131,1072.35522244978,601.2753573199387,605.0620674502911,794.2296381872602
1533059194.554,529.240140734128,1108.0796548869232,601.2753573199387,624.3743820718445,971.924066586147
1533059194.5570002,652.3089849288452,1125.9784740075822,672.0072434087136,695.1774140393277,823.8444572808904
1533059194.561,824.6179698576905,1108.0796548869232,742.7391294974885,708.0435021421509,944.9999999999998
1533059194.565,818.467678412015,1143.8406902261536,636.6594088861103,733.8020432824344,791.5388856797772
1533059194.569,664.6221708764375,1072.35522244978,778.1231810636601,682.298143469186,600.3851809063696
1533059194.573,436.92275376778866,1018.731970891978,831.1811498911333,508.51367680984293,813.0759334138527
1533059194.5770001,541.5407236254791,1143.8406902261536,778.1231810636601,482.76831813687795,1111.9203906947432
1533059194.581,861.5449246442262,1197.4639417839558,778.1231810636601,605.0620674502911,1044.6129811479282
1533059194.585,812.3173869663395,1161.7029064447252,760.4492638023586,547.1251235856311,891.1518668277055
1533059194.589,640.0084020374941,1161.7029064447252,742.7391294974885,405.51905965066453,1136.1537047734073
1533059194.593,492.3131859475923,1108.0796548869232,689.6811606700153,379.7737009776996,1294.9963241085961
1533059194.5970001,498.46347739326785,1018.731970891978,618.9492745812404,405.51905965066453,665.0018379457016
1533059194.6,683.0856482697054,947.2465031156041,548.2173884924656,444.1436888937713,438.8462952265923
1533059194.6039999,707.699417108649,1000.8697546734063,636.6594088861103,502.06745029111283,931.540723625479
1533059194.6079998,658.471879430762,1018.731970891978,795.7970983249618,527.8128089640778,1063.4592763745206
1533059194.6120002,492.3131859475923,929.3476839949453,884.2029016750382,514.9467208612546,1297.6925904531847
1533059194.6160002,424.6221708764376,911.4854677763738,919.5869532412097,502.06745029111283,1114.6166570393318
1533059194.62,695.3862311610567,1018.731970891978,831.1811498911333,560.0043941557728,907.3074095468149
1533059194.6239998,713.8497085543245,965.1087193341758,813.4710155862632,534.2590354828079,1133.4629522659243
1533059194.6279998,572.3173869663394,822.1377837814284,778.1231810636601,469.8890475667362,1200.7703618127393
1533059194.6320002,467.69941710864884,911.4854677763738,654.3333261474121,463.4560035153246,966.5370477340754
1533059194.6360002,363.08144725095843,965.1087193341758,548.2173884924656,315.40371306162797,923.4629522659243
1533059194.639,566.1544924644227,947.2465031156041,601.2753573199387,315.40371306162797,848.0777713595545
1533059194.643,726.1628945019168,1018.731970891978,707.3912949748853,424.8313742722179,770.0018379457016
1533059194.647,627.6952160899018,1018.731970891978,672.0072434087136,366.8944304075579,1031.1537047734073
1533059194.651,566.1544924644227,1000.8697546734063,654.3333261474121,354.0283423047346,1074.2278002415583
1533059194.655,504.6263718951846,929.3476839949453,636.6594088861103,328.2829836317697,934.231476132962
1533059194.659,633.8455075355773,947.2465031156041,565.8913057537673,289.658354388663,907.3074095468149
1533059194.6629999,806.1544924644227,1143.8406902261536,654.3333261474121,366.8944304075579,875.0018379457016
1533059194.667,763.0772462322113,1090.2174386683516,760.4492638023586,463.4560035153246,597.6944283988865
1533059194.671,633.8455075355773,965.1087193341758,760.4492638023586,502.06745029111283,729.6129811479282
1533059194.675,480.0,1000.8697546734063,760.4492638023586,489.2013621882896,955.7685238670375
1533059194.679,541.5407236254791,893.6232515578021,725.0652122361869,444.1436888937713,718.8444572808904
1533059194.6820002,695.3862311610567,893.6232515578021,848.8550671524349,476.32209161814785,931.540723625479
1533059194.686,689.2359397153809,1054.456403329121,901.9130359799082,508.51367680984293,1082.3055716011131
1533059194.69,560.004201018747,1161.7029064447252,831.1811498911333,431.2644183236295,1079.61481909363
1533059194.694,461.5491256629734,1125.9784740075822,707.3912949748853,373.340656926288,1090.3833429606677
1533059194.698,498.46347739326785,1036.5941871105495,636.6594088861103,289.658354388663,1163.0777713595544
1533059194.7020001,566.1544924644227,1000.8697546734063,654.3333261474121,308.97066901021634,1324.6166570393318
1533059194.706,584.6179698576905,982.9709355527474,689.6811606700153,392.65297154784133,1025.7666859213357
1533059194.71,566.1544924644227,1036.5941871105495,689.6811606700153,431.2644183236295,891.1518668277055
1533059194.714,344.6179698576905,1108.0796548869232,707.3912949748853,341.14907173459295,826.540723625479
1533059194.718,332.31738696633937,893.6232515578021,707.3912949748853,257.47995166428643,543.8462952265922
1533059194.7220001,603.0814472509584,822.1377837814284,725.0652122361869,360.46138635614625,783.4611143202225
1533059194.725,633.8455075355773,965.1087193341758,778.1231810636601,411.95210370207616,1456.5352097883738
1533059194.7289999,529.240140734128,929.3476839949453,831.1811498911333,405.51905965066453,1308.4611143202226
1533059194.7329998,387.69521608990186,893.6232515578021,742.7391294974885,411.95210370207616,885.7703618127393
1533059194.7370002,375.3946331985507,804.2389646607695,689.6811606700153,334.7160276831813,791.5388856797772
1533059194.7410002,566.1544924644227,804.2389646607695,795.7970983249618,296.09139844007467,549.2333140786639
1533059194.745,584.6179698576905,893.6232515578021,848.8550671524349,360.46138635614625,565.3833429606677
1533059194.7489998,535.3904321798036,1018.731970891978,831.1811498911333,418.39833022080626,651.5370477340754
1533059194.7529998,461.5491256629734,1054.456403329121,884.2029016750382,437.71064484235967,673.0740954681509
1533059194.7570002,504.6263718951846,982.9709355527474,901.9130359799082,463.4560035153246,1004.2296381872602
1533059194.7610002,695.3862311610567,965.1087193341758,884.2029016750382,521.3797649126661,799.6166570393318
1533059194.764,750.7766633408602,982.9709355527474,848.8550671524349,482.76831813687795,740.3870188520714
1533059194.768,676.9227537677888,1000.8697546734063,831.1811498911333,450.5767329451829,1184.61481909363
1533059194.772,510.7766633408602,982.9709355527474,760.4492638023586,424.8313742722179,1079.61481909363
1533059194.776,541.5407236254791,1018.731970891978,795.7970983249618,463.4560035153246,1117.3074095468148
1533059194.78,800.004201018747,1179.5651226632967,884.2029016750382,547.1251235856311,1224.998162054298
1533059194.784,904.6221708764375,1197.4639417839558,884.2029016750382,579.3167087773262,799.6166570393318
1533059194.7879999,836.9311558052827,1108.0796548869232,848.8550671524349,553.5713501043612,775.3833429606677
1533059194.792,689.2359397153809,1036.5941871105495,848.8550671524349,547.1251235856311,476.53888567977714
1533059194.796,609.2317386966339,1143.8406902261536,831.1811498911333,566.4374382071844,406.540723625479
1533059194.8,769.240140734128,1286.811625778901,654.3333261474121,547.1251235856311,689.2296381872602
1533059194.804,756.9269547865357,1304.6738419974727,512.8695539698623,450.5767329451829,928.8444572808904
1533059194.8070002,633.8455075355773,1251.0505904396705,654.3333261474121,386.20674502911123,1338.0759334138525
1533059194.811,646.1586934831697,1286.811625778901,813.4710155862632,482.76831813687795,1079.61481909363
1533059194.815,584.6179698576905,1304.6738419974727,813.4710155862632,476.32209161814785,1009.6166570393318
1533059194.819,750.7766633408602,1233.188374221099,689.6811606700153,379.7737009776996,1128.0759334138527
1533059194.823,818.467678412015,1286.811625778901,636.6594088861103,308.97066901021634,1004.2296381872602
1533059194.8270001,640.0084020374941,1394.0581288945052,742.7391294974885,251.03372514555633,985.3833429606677
1533059194.831,596.9311558052827,1411.9203451130768,725.0652122361869,270.34603976710963,864.2278002415584
1533059194.835,603.0814472509584,1465.543596670879,672.0072434087136,289.658354388663,767.3055716011131
1533059194.839,713.8497085543245,1340.434877336703,689.6811606700153,366.8944304075579,1095.7703618127393
1533059194.843,867.6952160899018,1340.434877336703,813.4710155862632,476.32209161814785,955.7685238670375
1533059194.8470001,793.8539095730715,1340.434877336703,778.1231810636601,469.8890475667362,815.7666859213357
1533059194.85,627.6952160899018,1233.188374221099,725.0652122361869,418.39833022080626,1041.9222286404452
1533059194.8539999,566.1544924644227,1286.811625778901,707.3912949748853,424.8313742722179,1004.2296381872602
1533059194.8579998,701.5491256629733,1286.811625778901,689.6811606700153,502.06745029111283,872.3055716011131
1533059194.8620002,830.7682613033661,1161.7029064447252,725.0652122361869,514.9467208612546,891.1518668277055
1533059194.8660002,812.3173869663395,1125.9784740075822,778.1231810636601,547.1251235856311,880.3833429606677
1533059194.87,707.699417108649,1179.5651226632967,831.1811498911333,514.9467208612546,969.2278002415584
1533059194.8739998,572.3173869663394,1161.7029064447252,760.4492638023586,444.1436888937713,861.5370477340754
1533059194.8779998,646.1586934831697,1179.5651226632967,725.0652122361869,489.2013621882896,764.61481909363
1533059194.8820002,830.7682613033661,1233.188374221099,831.1811498911333,553.5713501043612,977.3055716011131
1533059194.8860002,800.004201018747,1215.3261580025273,954.9710048073814,572.8704822585961,1146.9222286404452
1533059194.889,701.5491256629733,1268.9494095603295,990.3188393299847,566.4374382071844,1109.2296381872602
1533059194.893,627.6952160899018,1322.5726611181315,884.2029016750382,566.4374382071844,648.8462952265922
1533059194.897,683.0856482697054,1304.6738419974727,742.7391294974885,553.5713501043612,543.8462952265922
1533059194.901,836.9311558052827,1304.6738419974727,760.4492638023586,521.3797649126661,767.3055716011131
1533059194.905,830.7682613033661,1411.9203451130768,813.4710155862632,521.3797649126661,880.3833429606677
1533059194.909,775.3904321798036,1429.7825613316484,831.1811498911333,508.51367680984293,850.7685238670375
1533059194.9129999,640.0084020374941,1358.2970935552748,831.1811498911333,476.32209161814785,788.8481331722941
1533059194.917,553.8539095730716,1322.5726611181315,866.5289844137365,463.4560035153246,689.2296381872602
1533059194.921,750.7766633408602,1215.3261580025273,1025.702890896156,502.06745029111283,877.6925904531847
1533059194.925,781.5407236254791,1233.188374221099,1255.5724664237825,514.9467208612546,885.7703618127393
1533059194.929,683.0856482697054,1394.0581288945052,1184.8405803350076,502.06745029111283,662.3055716011131
1533059194.9320002,590.7808643596073,1340.434877336703,990.3188393299847,469.8890475667362,1082.3055716011131
1533059194.936,535.3904321798036,1268.9494095603295,954.9710048073814,437.71064484235967,888.4611143202225
1533059194.94,732.3131859475923,1143.8406902261536,1131.7826115075345,502.06745029111283,624.6129811479282
1533059194.944,769.240140734128,947.2465031156041,1308.6304352512557,598.6290233988794,885.7703618127393
1533059194.948,640.0084020374941,840.0,1397.0724556449009,656.552784796221,858.8462952265922
1533059194.9520001,480.0,822.1377837814284,1379.3623213400306,547.1251235856311,1187.3055716011131
1533059194.956,375.3946331985507,911.4854677763738,1131.7826115075345,379.7737009776996,1009.6166570393318
1533059194.96,572.3173869663394,893.6232515578021,901.9130359799082,444.1436888937713,845.3815050149659
1533059194.964,646.1586934831697,822.1377837814284,901.9130359799082,527.8128089640778,1144.2314761329621
1533059194.968,535.3904321798036,786.3767484421979,990.3188393299847,553.5713501043612,1136.1537047734073
1533059194.9720001,449.235939715381,822.1377837814284,1007.9927565912865,553.5713501043612,1119.998162054298
1533059194.975,381.5449246442263,947.2465031156041,778.1231810636601,495.6344062397012,899.2296381872602
1533059194.9789999,504.6263718951846,1072.35522244978,565.8913057537673,431.2644183236295,969.2278002415584
1533059194.9829998,640.0084020374941,1161.7029064447252,601.2753573199387,495.6344062397012,1168.4592763745206
1533059194.9870002,596.9311558052827,1143.8406902261536,848.8550671524349,643.6866966933978,1028.4629522659243
1533059194.9910002,473.8497085543244,1054.456403329121,1007.9927565912865,624.3743820718445,799.6166570393318
1533059194.995,400.00840203749414,1090.2174386683516,972.6449220686828,560.0043941557728,877.6925904531847
1533059194.9989998,572.3173869663394,1161.7029064447252,972.6449220686828,592.1827968801495,1176.5370477340755
1533059195.0029998,787.6910150711548,1197.4639417839558,1007.9927565912865,662.9858288476327,1085.0018379457017
1533059195.0070002,670.7724623221131,1197.4639417839558,848.8550671524349,514.9467208612546,988.0740954681509
1533059195.0110002,553.8539095730716,1090.2174386683516,884.2029016750382,399.08601559925296,891.1518668277055
1533059195.014,400.00840203749414,1018.731970891978,866.5289844137365,386.20674502911123,864.2278002415584
1533059195.018,473.8497085543244,1090.2174386683516,884.2029016750382,450.5767329451829,971.924066586147
1533059195.022,800.004201018747,1143.8406902261536,901.9130359799082,592.1827968801495,1012.3074095468149
1533059195.026,775.3904321798036,1179.5651226632967,778.1231810636601,611.4951115017027,1079.61481909363
1533059195.03,529.240140734128,1215.3261580025273,725.0652122361869,476.32209161814785,592.3074095468149
1533059195.034,375.3946331985507,1268.9494095603295,601.2753573199387,373.340656926288,250.38334296066782
1533059195.0379999,473.8497085543244,1268.9494095603295,689.6811606700153,444.1436888937713,514.231476132962
1533059195.042,689.2359397153809,1268.9494095603295,831.1811498911333,527.8128089640778,659.61481909363
1533059195.046,720.0,1394.0581288945052,831.1811498911333,579.3167087773262,1039.2314761329621
1533059195.05,584.6179698576905,1304.6738419974727,760.4492638023586,527.8128089640778,982.6925904531847
1533059195.054,418.471879430762,1143.8406902261536,813.4710155862632,463.4560035153246,982.6925904531847
1533059195.0570002,424.6221708764376,1125.9784740075822,848.8550671524349,482.76831813687795,1076.9240665861469
1533059195.061,621.5449246442262,1161.7029064447252,707.3912949748853,553.5713501043612,721.540723625479
1533059195.065,603.0814472509584,1215.3261580025273,742.7391294974885,572.8704822585961,1090.3833429606677
1533059195.069,498.46347739326785,1233.188374221099,778.1231810636601,534.2590354828079,993.4611143202225
1533059195.073,436.92275376778866,1304.6738419974727,831.1811498911333,514.9467208612546,947.6907525074829
1533059195.0770001,387.69521608990186,1233.188374221099,901.9130359799082,457.00977699659455,1198.0740954681507
1533059195.081,547.7036181273959,1125.9784740075822,848.8550671524349,476.32209161814785,1133.4629522659243
1533059195.085,652.3089849288452,1125.9784740075822,813.4710155862632,605.0620674502911,1119.998162054298
1533059195.089,590.7808643596073,1018.731970891978,884.2029016750382,643.6866966933978,1136.1537047734073
1533059195.093,529.240140734128,1018.731970891978,919.5869532412097,579.3167087773262,1200.7703618127393
1533059195.096,553.8539095730716,1161.7029064447252,813.4710155862632,534.2590354828079,1136.1537047734073
1533059195.1,720.0,1054.456403329121,778.1231810636601,572.8704822585961,1049.9999999999998
1533059195.1039999,818.467678412015,982.9709355527474,795.7970983249618,605.0620674502911,923.4629522659243
1533059195.1079998,738.4634773932679,1090.2174386683516,813.4710155862632,560.0043941557728,1079.61481909363
1533059195.1120002,560.004201018747,1036.5941871105495,972.6449220686828,514.9467208612546,1090.3833429606677
1533059195.1160002,516.9269547865357,1018.731970891978,901.9130359799082,469.8890475667362,1004.2296381872602
1533059195.12,720.0,1054.456403329121,848.8550671524349,469.8890475667362,1160.381505014966
1533059195.1239998,726.1628945019168,1018.731970891978,1043.3768081574578,457.00977699659455,1189.9963241085961
1533059195.1279998,566.1544924644227,965.1087193341758,1078.7608597236292,418.39833022080626,990.7703618127393
1533059195.1320002,418.471879430762,1018.731970891978,954.9710048073814,354.0283423047346,732.3092474925168
1533059195.1360002,240.00000000000006,1090.2174386683516,813.4710155862632,276.7922662858398,953.0777713595545
1533059195.139,326.1544924644227,1000.8697546734063,707.3912949748853,276.7922662858398,845.3815050149659
1533059195.143,473.8497085543244,911.4854677763738,778.1231810636601,392.65297154784133,611.1537047734074
1533059195.147,443.08564826970553,893.6232515578021,848.8550671524349,424.8313742722179,821.1537047734074
1533059195.151,369.231738696634,893.6232515578021,795.7970983249618,366.8944304075579,775.3833429606677
1533059195.155,264.62637189518466,929.3476839949453,689.6811606700153,334.7160276831813,839.9999999999998
1533059195.159,504.6263718951846,982.9709355527474,618.9492745812404,347.595298253323,740.3870188520714
1533059195.1629999,744.6263718951845,965.1087193341758,778.1231810636601,424.8313742722179,864.2278002415584
1533059195.167,664.6221708764375,911.4854677763738,937.2608705025115,482.76831813687795,1189.9963241085961
1533059195.171,578.467678412015,840.0,901.9130359799082,469.8890475667362,1071.5370477340753
1533059195.175,461.5491256629734,804.2389646607695,831.1811498911333,469.8890475667362,667.6925904531847
1533059195.179,572.3173869663394,750.6523160050547,848.8550671524349,495.6344062397012,899.2296381872602
1533059195.1820002,800.004201018747,840.0,866.5289844137365,598.6290233988794,1125.3851809063697
1533059195.186,756.9269547865357,1000.8697546734063,848.8550671524349,643.6866966933978,823.8444572808904
1533059195.19,590.7808643596073,1054.456403329121,990.3188393299847,643.6866966933978,1017.6889145617811
1533059195.194,387.69521608990186,1000.8697546734063,1061.0507254187598,502.06745029111283,1106.5388856797772
1533059195.198,406.1586934831697,822.1377837814284,1025.702890896156,373.340656926288,1001.5388856797772
1533059195.2020001,701.5491256629733,822.1377837814284,866.5289844137365,444.1436888937713,837.3092474925168
1533059195.206,732.3131859475923,1072.35522244978,813.4710155862632,495.6344062397012,659.61481909363
1533059195.21,510.7766633408602,1108.0796548869232,954.9710048073814,424.8313742722179,1052.6907525074828
1533059195.214,307.70361812739594,982.9709355527474,884.2029016750382,328.2829836317697,1294.9963241085961
1533059195.218,375.3946331985507,1054.456403329121,707.3912949748853,276.7922662858398,651.5370477340754
1533059195.221,566.1544924644227,1125.9784740075822,795.7970983249618,276.7922662858398,764.61481909363
1533059195.225,424.6221708764376,1072.35522244978,919.5869532412097,251.03372514555633,1063.4592763745206
1533059195.2289999,283.0772462322114,982.9709355527474,1043.3768081574578,257.47995166428643,936.9222286404452
1533059195.2329998,252.31318594759236,929.3476839949453,1096.4347769849312,308.97066901021634,1014.998162054298
1533059195.2370002,326.1544924644227,1000.8697546734063,990.3188393299847,347.595298253323,912.6944283988865
1533059195.2410002,566.1544924644227,1125.9784740075822,954.9710048073814,411.95210370207616,1276.155542719109
1533059195.245,683.0856482697054,1233.188374221099,954.9710048073814,527.8128089640778,1494.2278002415585
1533059195.2489998,578.467678412015,1215.3261580025273,1149.4927458124043,534.2590354828079,1249.2314761329621
1533059195.2529998,400.00840203749414,1179.5651226632967,1273.2826007286524,527.8128089640778,1079.61481909363
1533059195.2570002,498.46347739326785,1161.7029064447252,1167.166663073706,624.3743820718445,1031.1537047734073
1533059195.2610002,843.0814472509584,1072.35522244978,1131.7826115075345,753.1011754366691,920.7666859213357
1533059195.264,923.0856482697054,1125.9784740075822,1202.5507146398775,881.8411512688125,848.0777713595545
1533059195.268,775.3904321798036,1304.6738419974727,1043.3768081574578,675.8650994177743,1025.7666859213357
1533059195.272,683.0856482697054,1411.9203451130768,742.7391294974885,463.4560035153246,923.4629522659243
1533059195.276,658.471879430762,1286.811625778901,618.9492745812404,527.8128089640778,856.1555427191092
1533059195.28,818.467678412015,1072.35522244978,813.4710155862632,598.6290233988794,1025.7666859213357
1533059195.284,916.9227537677887,929.3476839949453,1078.7608597236292,675.8650994177743,998.8481331722941
1533059195.2879999,806.1544924644227,875.7610353392305,1096.4347769849312,675.8650994177743,971.924066586147
1533059195.292,676.9227537677888,965.1087193341758,919.5869532412097,566.4374382071844,772.6925904531847
1533059195.296,603.0814472509584,1090.2174386683516,672.0072434087136,469.8890475667362,522.3092474925168
1533059195.3,769.240140734128,1054.456403329121,548.2173884924656,489.2013621882896,799.6166570393318
1533059195.304,812.3173869663395,1072.35522244978,654.3333261474121,514.9467208612546,1138.8444572808903
1533059195.3070002,578.467678412015,982.9709355527474,760.4492638023586,424.8313742722179,1238.4629522659243
1533059195.311,504.6263718951846,911.4854677763738,672.0072434087136,379.7737009776996,988.0740954681509
1533059195.315,412.30898492884535,982.9709355527474,459.81158514238905,341.14907173459295,659.61481909363
1533059195.319,387.69521608990186,965.1087193341758,424.42753357621746,244.60068109414473,923.4629522659243
1533059195.323,449.235939715381,875.7610353392305,618.9492745812404,276.7922662858398,1130.7666859213357
1533059195.3270001,406.1586934831697,840.0,742.7391294974885,373.340656926288,1106.5388856797772
1533059195.331,412.30898492884535,822.1377837814284,601.2753573199387,411.95210370207616,1106.5388856797772
1533059195.335,289.2401407341281,804.2389646607695,583.6014400586371,328.2829836317697,1195.3833429606677
1533059195.339,344.6179698576905,786.3767484421979,636.6594088861103,257.47995166428643,1028.4629522659243
1533059195.343,596.9311558052827,786.3767484421979,707.3912949748853,392.65297154784133,1012.3074095468149
1533059195.346,615.3946331985507,875.7610353392305,725.0652122361869,482.76831813687795,1130.7666859213357
1533059195.35,560.004201018747,965.1087193341758,601.2753573199387,502.06745029111283,796.9203906947433
1533059195.3539999,529.240140734128,1108.0796548869232,512.8695539698623,444.1436888937713,926.1537047734074
1533059195.3579998,596.9311558052827,1125.9784740075822,565.8913057537673,489.2013621882896,1039.2314761329621
1533059195.3620002,824.6179698576905,875.7610353392305,795.7970983249618,598.6290233988794,966.5370477340754
1533059195.3660002,910.7724623221131,786.3767484421979,1007.9927565912865,675.8650994177743,1189.9963241085961
1533059195.37,904.6221708764375,1143.8406902261536,1096.4347769849312,785.2927606283642,985.3833429606677
1533059195.3739998,738.4634773932679,1394.0581288945052,937.2608705025115,708.0435021421509,740.3870188520714
1533059195.3779998,670.7724623221131,1376.1593097738464,689.6811606700153,605.0620674502911,1006.9203906947433
1533059195.3820002,880.0084020374941,1358.2970935552748,548.2173884924656,592.1827968801495,1184.61481909363
1533059195.3860002,886.1586934831697,1286.811625778901,689.6811606700153,624.3743820718445,1222.3074095468148
1533059195.389,676.9227537677888,1108.0796548869232,848.8550671524349,540.6920795342195,1179.2278002415583
1533059195.393,553.8539095730716,1090.2174386683516,848.8550671524349,489.2013621882896,1165.7685238670376
1533059195.397,609.2317386966339,1108.0796548869232,848.8550671524349,534.2590354828079,1101.1518668277056
1533059195.401,781.5407236254791,1143.8406902261536,813.4710155862632,637.2404701746677,1071.5370477340753
1533059195.405,824.6179698576905,1125.9784740075822,901.9130359799082,643.6866966933978,1211.5388856797772
1533059195.409,683.0856482697054,982.9709355527474,1078.7608597236292,540.6920795342195,1418.8426193351886
1533059195.4129999,523.0772462322113,965.1087193341758,1025.702890896156,476.32209161814785,942.3092474925168
1533059195.417,498.46347739326785,1018.731970891978,760.4492638023586,431.2644183236295,802.3074095468149
1533059195.421,750.7766633408602,1036.5941871105495,760.4492638023586,527.8128089640778,799.6166570393318
1533059195.425,836.9311558052827,982.9709355527474,848.8550671524349,650.1197407448094,732.3092474925168
1533059195.428,670.7724623221131,947.2465031156041,742.7391294974885,592.1827968801495,1348.8444572808905
1533059195.4320002,529.240140734128,929.3476839949453,725.0652122361869,502.06745029111283,1189.9963241085961
1533059195.436,510.7766633408602,893.6232515578021,778.1231810636601,457.00977699659455,734.9999999999998
1533059195.44,658.471879430762,875.7610353392305,725.0652122361869,482.76831813687795,576.1518668277055
1533059195.444,775.3904321798036,947.2465031156041,813.4710155862632,592.1827968801495,734.9999999999998
1533059195.448,676.9227537677888,929.3476839949453,831.1811498911333,592.1827968801495,788.8481331722941
1533059195.4520001,529.240140734128,947.2465031156041,795.7970983249618,527.8128089640778,761.924066586147
1533059195.456,492.3131859475923,929.3476839949453,866.5289844137365,527.8128089640778,891.1518668277055
1533059195.46,707.699417108649,857.8622162185716,884.2029016750382,521.3797649126661,907.3074095468149
1533059195.464,886.1586934831697,929.3476839949453,848.8550671524349,560.0043941557728,872.3055716011131
1533059195.468,849.2317386966339,1072.35522244978,778.1231810636601,572.8704822585961,815.7666859213357
1533059195.471,701.5491256629733,965.1087193341758,778.1231810636601,514.9467208612546,909.998162054298
1533059195.475,578.467678412015,875.7610353392305,778.1231810636601,469.8890475667362,635.3870188520714
1533059195.4789999,756.9269547865357,1018.731970891978,654.3333261474121,585.7497528287378,519.6129811479282
1533059195.4829998,1009.2401407341282,1072.35522244978,725.0652122361869,714.489728660881,818.4629522659243
1533059195.4870002,929.2359397153809,1018.731970891978,813.4710155862632,701.6104580907394,756.5370477340754
1533059195.4910002,812.3173869663395,965.1087193341758,760.4492638023586,624.3743820718445,794.2296381872602
1533059195.495,689.2359397153809,1000.8697546734063,778.1231810636601,585.7497528287378,934.231476132962
1533059195.4989998,652.3089849288452,1036.5941871105495,954.9710048073814,585.7497528287378,842.6907525074829
1533059195.5029998,775.3904321798036,982.9709355527474,954.9710048073814,579.3167087773262,839.9999999999998
1533059195.5070002,756.9269547865357,929.3476839949453,884.2029016750382,605.0620674502911,734.9999999999998
1533059195.5110002,670.7724623221131,1036.5941871105495,1007.9927565912865,637.2404701746677,853.4592763745206
1533059195.514,578.467678412015,1090.2174386683516,1096.4347769849312,572.8704822585961,788.8481331722941
1533059195.518,603.0814472509584,1054.456403329121,1043.3768081574578,560.0043941557728,745.7685238670375
1533059195.522,787.6910150711548,1072.35522244978,937.2608705025115,624.3743820718445,1329.9981620542978
1533059195.526,800.004201018747,1143.8406902261536,1007.9927565912865,598.6290233988794,1222.3074095468148
1533059195.53,689.2359397153809,1161.7029064447252,1043.3768081574578,508.51367680984293,807.6944283988865
1533059195.534,621.5449246442262,1072.35522244978,990.3188393299847,508.51367680984293,519.6129811479282
1533059195.5379999,664.6221708764375,1072.35522244978,1078.7608597236292,502.06745029111283,756.5370477340754
1533059195.542,886.1586934831697,1125.9784740075822,1202.5507146398775,572.8704822585961,1074.2278002415583
1533059195.546,929.2359397153809,982.9709355527474,1167.166663073706,650.1197407448094,802.3074095468149
1533059195.55,818.467678412015,929.3476839949453,1061.0507254187598,598.6290233988794,1006.9203906947433
1533059195.553,707.699417108649,1018.731970891978,1043.3768081574578,547.1251235856311,1154.9999999999998
1533059195.5570002,640.0084020374941,982.9709355527474,1061.0507254187598,463.4560035153246,899.2296381872602
1533059195.561,775.3904321798036,857.8622162185716,1025.702890896156,469.8890475667362,963.8462952265922
1533059195.565,787.6910150711548,804.2389646607695,1025.702890896156,560.0043941557728,1087.6925904531847
1533059195.569,720.0,1000.8697546734063,1078.7608597236292,630.807426123256,1192.6925904531847
1533059195.573,596.9311558052827,1125.9784740075822,1078.7608597236292,637.2404701746677,823.8444572808904
1533059195.5770001,535.3904321798036,1090.2174386683516,1096.4347769849312,630.807426123256,950.3815050149659
1533059195.581,738.4634773932679,1108.0796548869232,1114.1086942462327,695.1774140393277,1324.6166570393318
1533059195.585,830.7682613033661,1072.35522244978,990.3188393299847,708.0435021421509,958.4592763745206
1533059195.589,701.5491256629733,982.9709355527474,901.9130359799082,656.552784796221,961.1555427191092
1533059195.593,584.6179698576905,911.4854677763738,937.2608705025115,624.3743820718445,1278.8462952265922
1533059195.596,486.1628945019167,840.0,1007.9927565912865,585.7497528287378,1119.998162054298
1533059195.6,609.2317386966339,857.8622162185716,901.9130359799082,592.1827968801495,802.3074095468149
1533059195.6039999,713.8497085543245,911.4854677763738,831.1811498911333,560.0043941557728,1001.5388856797772
1533059195.6079998,590.7808643596073,786.3767484421979,937.2608705025115,521.3797649126661,834.6129811479282
1533059195.6120002,547.7036181273959,697.0290644472526,972.6449220686828,547.1251235856311,734.9999999999998
1533059195.6160002,436.92275376778866,804.2389646607695,954.9710048073814,514.9467208612546,926.1537047734074
1533059195.62,492.3131859475923,786.3767484421979,919.5869532412097,469.8890475667362,673.0740954681509
1533059195.6239998,664.6221708764375,714.8912806658242,972.6449220686828,508.51367680984293,759.2333140786639
1533059195.6279998,609.2317386966339,625.5435966708789,1007.9927565912865,585.7497528287378,971.924066586147
1533059195.6320002,498.46347739326785,464.67384199747266,884.2029016750382,547.1251235856311,823.8444572808904
1533059195.6360002,363.08144725095843,571.9203451130768,795.7970983249618,476.32209161814785,778.0740954681509
1533059195.639,443.08564826970553,464.67384199747266,848.8550671524349,495.6344062397012,1117.3074095468148
1533059195.643,652.3089849288452,339.56512266329685,1007.9927565912865,585.7497528287378,1154.9999999999998
1533059195.647,683.0856482697054,464.67384199747266,1167.166663073706,624.3743820718445,1049.9999999999998
1533059195.651,547.7036181273959,554.021525992418,1202.5507146398775,527.8128089640778,1160.381505014966
1533059195.655,393.84550753557744,786.3767484421979,866.5289844137365,392.65297154784133,740.3870188520714
1533059195.659,535.3904321798036,982.9709355527474,672.0072434087136,360.46138635614625,603.0759334138527
1533059195.6629999,646.1586934831697,893.6232515578021,725.0652122361869,366.8944304075579,1216.9203906947432
1533059195.667,535.3904321798036,768.5145322236262,760.4492638023586,308.97066901021634,1219.6166570393318
1533059195.671,529.240140734128,857.8622162185716,707.3912949748853,360.46138635614625,1122.688914561781
1533059195.675,406.1586934831697,768.5145322236262,760.4492638023586,366.8944304075579,818.4629522659243
1533059195.678,295.39043217980367,607.64477755022,831.1811498911333,283.2253103372514,683.8481331722941
1533059195.6820002,535.3904321798036,714.8912806658242,1025.702890896156,418.39833022080626,697.3074095468149
1533059195.686,615.3946331985507,840.0,1149.4927458124043,527.8128089640778,718.8444572808904
1533059195.69,553.8539095730716,1072.35522244978,901.9130359799082,489.2013621882896,934.231476132962
1533059195.694,424.6221708764376,1197.4639417839558,813.4710155862632,392.65297154784133,953.0777713595545
1533059195.698,400.00840203749414,982.9709355527474,919.5869532412097,437.71064484235967,804.998162054298
1533059195.7020001,652.3089849288452,947.2465031156041,990.3188393299847,572.8704822585961,713.4629522659243
1533059195.706,664.6221708764375,857.8622162185716,972.6449220686828,540.6920795342195,861.5370477340754
1533059195.71,547.7036181273959,804.2389646607695,1061.0507254187598,476.32209161814785,1074.2278002415583
1533059195.714,547.7036181273959,947.2465031156041,1007.9927565912865,469.8890475667362,1114.6166570393318
1533059195.718,553.8539095730716,982.9709355527474,884.2029016750382,444.1436888937713,1009.6166570393318
1533059195.721,707.699417108649,1090.2174386683516,795.7970983249618,457.00977699659455,1257.3092474925168
1533059195.725,793.8539095730715,1125.9784740075822,884.2029016750382,592.1827968801495,904.6166570393318
1533059195.7289999,664.6221708764375,1108.0796548869232,990.3188393299847,572.8704822585961,640.7685238670375
1533059195.7329998,584.6179698576905,1161.7029064447252,1043.3768081574578,527.8128089640778,1103.8481331722942
1533059195.7370002,504.6263718951846,1125.9784740075822,1078.7608597236292,540.6920795342195,1319.2296381872602
1533059195.7410002,633.8455075355773,1143.8406902261536,990.3188393299847,482.76831813687795,1036.5352097883735
1533059195.745,800.004201018747,1251.0505904396705,990.3188393299847,598.6290233988794,1014.998162054298
1533059195.7489998,781.5407236254791,1268.9494095603295,884.2029016750382,643.6866966933978,1006.9203906947433
1533059195.7529998,596.9311558052827,1179.5651226632967,884.2029016750382,553.5713501043612,1087.6925904531847
1533059195.7570002,332.31738696633937,1161.7029064447252,884.2029016750382,399.08601559925296,1047.3092474925168
1533059195.76,480.0,1108.0796548869232,884.2029016750382,405.51905965066453,839.9999999999998
1533059195.764,763.0772462322113,1072.35522244978,990.3188393299847,566.4374382071844,1052.6907525074828
1533059195.768,750.7766633408602,1197.4639417839558,937.2608705025115,611.4951115017027,990.7703618127393
1533059195.772,596.9311558052827,1376.1593097738464,831.1811498911333,457.00977699659455,764.61481909363
1533059195.776,436.92275376778866,1358.2970935552748,795.7970983249618,302.53762495880466,1001.5388856797772
1533059195.78,621.5449246442262,1251.0505904396705,848.8550671524349,457.00977699659455,1109.2296381872602
1533059195.784,806.1544924644227,1179.5651226632967,1061.0507254187598,598.6290233988794,1138.8444572808903
1533059195.7879999,689.2359397153809,1143.8406902261536,1061.0507254187598,489.2013621882896,869.61481909363
1533059195.792,572.3173869663394,1179.5651226632967,901.9130359799082,405.51905965066453,988.0740954681509
1533059195.796,412.30898492884535,1251.0505904396705,831.1811498911333,328.2829836317697,1224.998162054298
1533059195.8,467.69941710864884,1376.1593097738464,866.5289844137365,315.40371306162797,753.8462952265922
1533059195.803,701.5491256629733,1465.543596670879,866.5289844137365,424.8313742722179,530.3870188520714
1533059195.8070002,713.8497085543245,1429.7825613316484,778.1231810636601,463.4560035153246,848.0777713595545
1533059195.811,640.0084020374941,1447.6813804523074,972.6449220686828,489.2013621882896,1044.6129811479282
1533059195.815,455.38623116105657,1304.6738419974727,954.9710048073814,399.08601559925296,1074.2278002415583
1533059195.819,461.5491256629734,1161.7029064447252,689.6811606700153,341.14907173459295,888.4611143202225
1533059195.823,683.0856482697054,1233.188374221099,618.9492745812404,463.4560035153246,651.5370477340754
1533059195.8270001,707.699417108649,1233.188374221099,601.2753573199387,547.1251235856311,877.6925904531847
1533059195.831,560.004201018747,1161.7029064447252,654.3333261474121,482.76831813687795,1071.5370477340753
1533059195.835,406.1586934831697,1179.5651226632967,760.4492638023586,399.08601559925296,875.0018379457016
1533059195.839,443.08564826970553,1161.7029064447252,725.0652122361869,399.08601559925296,716.1537047734074
1533059195.843,713.8497085543245,1197.4639417839558,760.4492638023586,553.5713501043612,788.8481331722941
1533059195.846,720.0,1251.0505904396705,813.4710155862632,643.6866966933978,799.6166570393318
1533059195.85,480.0,1197.4639417839558,689.6811606700153,431.2644183236295,966.5370477340754
1533059195.8539999,332.31738696633937,1215.3261580025273,636.6594088861103,263.91299571569806,1039.2314761329621
1533059195.8579998,276.9269547865358,1125.9784740075822,618.9492745812404,321.84993958035807,761.924066586147
1533059195.8620002,498.46347739326785,929.3476839949453,707.3912949748853,450.5767329451829,969.2278002415584
1533059195.8660002,652.3089849288452,929.3476839949453,831.1811498911333,521.3797649126661,1122.688914561781
1533059195.87,609.2317386966339,1090.2174386683516,778.1231810636601,424.8313742722179,936.9222286404452
1533059195.8739998,486.1628945019167,1125.9784740075822,707.3912949748853,444.1436888937713,1138.8444572808903
1533059195.8779998,418.471879430762,1054.456403329121,601.2753573199387,405.51905965066453,1093.0740954681507
1533059195.8820002,603.0814472509584,1125.9784740075822,618.9492745812404,354.0283423047346,1063.4592763745206
1533059195.885,707.699417108649,1054.456403329121,618.9492745812404,463.4560035153246,1060.7685238670376
1533059195.889,615.3946331985507,911.4854677763738,689.6811606700153,534.2590354828079,1082.3055716011131
1533059195.893,504.6263718951846,875.7610353392305,831.1811498911333,560.0043941557728,1144.2314761329621
1533059195.897,467.69941710864884,911.4854677763738,689.6811606700153,514.9467208612546,877.6925904531847
1533059195.901,627.6952160899018,840.0,530.543471231164,534.2590354828079,686.5388856797772
1533059195.905,756.9269547865357,786.3767484421979,565.8913057537673,611.4951115017027,821.1537047734074
1533059195.909,695.3862311610567,840.0,725.0652122361869,624.3743820718445,734.9999999999998
1533059195.9129999,560.004201018747,857.8622162185716,778.1231810636601,592.1827968801495,538.4592763745206
1533059195.917,369.231738696634,768.5145322236262,725.0652122361869,444.1436888937713,1012.3074095468149
1533059195.921,443.08564826970553,840.0,725.0652122361869,341.14907173459295,1001.5388856797772
1533059195.925,572.3173869663394,822.1377837814284,813.4710155862632,366.8944304075579,1020.3851809063696
1533059195.928,516.9269547865357,822.1377837814284,848.8550671524349,360.46138635614625,931.540723625479
1533059195.9320002,369.231738696634,893.6232515578021,760.4492638023586,238.1676370427331,624.6129811479282
1533059195.936,240.00000000000006,982.9709355527474,760.4492638023586,218.85532242117978,648.8462952265922
1533059195.94,375.3946331985507,1197.4639417839558,742.7391294974885,296.09139844007467,942.3092474925168
1533059195.944,590.7808643596073,1322.5726611181315,707.3912949748853,315.40371306162797,1152.3092474925168
1533059195.948,578.467678412015,1251.0505904396705,813.4710155862632,257.47995166428643,1160.381505014966
1533059195.9520001,424.6221708764376,1251.0505904396705,884.2029016750382,212.42227836976815,1098.4611143202224
1533059195.956,313.8539095730715,1179.5651226632967,866.5289844137365,270.34603976710963,788.8481331722941
1533059195.96,467.69941710864884,1090.2174386683516,813.4710155862632,334.7160276831813,807.6944283988865
1533059195.964,713.8497085543245,1179.5651226632967,901.9130359799082,424.8313742722179,1157.6907525074828
1533059195.968,695.3862311610567,1108.0796548869232,795.7970983249618,463.4560035153246,1136.1537047734073
1533059195.971,596.9311558052827,1090.2174386683516,601.2753573199387,424.8313742722179,724.231476132962
1533059195.975,443.08564826970553,1143.8406902261536,636.6594088861103,431.2644183236295,514.231476132962
1533059195.9789999,535.3904321798036,1036.5941871105495,760.4492638023586,540.6920795342195,869.61481909363
1533059195.9829998,812.3173869663395,1072.35522244978,813.4710155862632,617.9281555531144,1259.9999999999998
1533059195.9870002,787.6910150711548,1018.731970891978,848.8550671524349,630.807426123256,1133.4629522659243
1533059195.9910002,707.699417108649,875.7610353392305,848.8550671524349,662.9858288476327,813.0759334138527
1533059195.995,627.6952160899018,893.6232515578021,848.8550671524349,650.1197407448094,632.6907525074829
1533059195.9989998,609.2317386966339,929.3476839949453,901.9130359799082,630.807426123256,899.2296381872602
1533059196.0029998,726.1628945019168,947.2465031156041,954.9710048073814,650.1197407448094,1313.8426193351886
1533059196.0070002,689.2359397153809,929.3476839949453,1061.0507254187598,605.0620674502911,915.3851809063696
1533059196.01,584.6179698576905,911.4854677763738,1184.8405803350076,534.2590354828079,791.5388856797772
1533059196.014,356.93115580528286,965.1087193341758,1043.3768081574578,450.5767329451829,807.6944283988865
1533059196.018,227.6994171086489,1090.2174386683516,636.6594088861103,321.84993958035807,928.8444572808904
1533059196.022,418.471879430762,1072.35522244978,618.9492745812404,334.7160276831813,891.1518668277055
1533059196.026,449.235939715381,947.2465031156041,866.5289844137365,379.7737009776996,772.6925904531847
1533059196.03,344.6179698576905,768.5145322236262,901.9130359799082,360.46138635614625,875.0018379457016
1533059196.034,215.3862311610566,625.5435966708789,866.5289844137365,354.0283423047346,823.8444572808904
1533059196.0379999,160.00840203749414,750.6523160050547,866.5289844137365,296.09139844007467,778.0740954681509
1533059196.042,430.7724623221131,929.3476839949453,848.8550671524349,386.20674502911123,759.2333140786639
1533059196.046,516.9269547865357,893.6232515578021,813.4710155862632,399.08601559925296,619.231476132962
1533059196.05,418.471879430762,732.7534968843959,795.7970983249618,225.2883664725914,918.0759334138527
1533059196.053,375.3946331985507,875.7610353392305,795.7970983249618,257.47995166428643,1060.7685238670376
1533059196.0570002,307.70361812739594,1018.731970891978,583.6014400586371,270.34603976710963,988.0740954681509
1533059196.061,504.6263718951846,947.2465031156041,565.8913057537673,289.658354388663,950.3815050149659
1533059196.065,640.0084020374941,911.4854677763738,795.7970983249618,373.340656926288,861.5370477340754
1533059196.069,609.2317386966339,893.6232515578021,884.2029016750382,392.65297154784133,697.3074095468149
1533059196.073,652.3089849288452,786.3767484421979,795.7970983249618,437.71064484235967,1144.2314761329621
1533059196.0770001,578.467678412015,822.1377837814284,831.1811498911333,444.1436888937713,1607.3055716011133
1533059196.081,609.2317386966339,893.6232515578021,742.7391294974885,379.7737009776996,1230.3851809063697
1533059196.085,769.240140734128,840.0,672.0072434087136,457.00977699659455,1093.0740954681507
1533059196.089,806.1544924644227,786.3767484421979,760.4492638023586,579.3167087773262,990.7703618127393
1533059196.092,695.3862311610567,750.6523160050547,725.0652122361869,553.5713501043612,872.3055716011131
1533059196.096,498.46347739326785,732.7534968843959,477.4855024036907,392.65297154784133,947.6907525074829
1533059196.1,646.1586934831697,875.7610353392305,371.36956474874427,386.20674502911123,1023.0759334138527
1533059196.1039999,916.9227537677887,1036.5941871105495,495.15941966499236,553.5713501043612,1224.998162054298
1533059196.1079998,818.467678412015,965.1087193341758,654.3333261474121,566.4374382071844,831.9222286404452
1533059196.1120002,609.2317386966339,768.5145322236262,795.7970983249618,418.39833022080626,745.7685238670375
1533059196.1160002,486.1628945019167,643.4058128894505,866.5289844137365,360.46138635614625,1031.1537047734073
1533059196.12,566.1544924644227,661.2680291080221,813.4710155862632,405.51905965066453,988.0740954681509
1533059196.1239998,732.3131859475923,804.2389646607695,689.6811606700153,444.1436888937713,1028.4629522659243
1533059196.1279998,701.5491256629733,857.8622162185716,725.0652122361869,482.76831813687795,1103.8481331722942
1533059196.1320002,621.5449246442262,804.2389646607695,689.6811606700153,495.6344062397012,853.4592763745206
1533059196.135,473.8497085543244,768.5145322236262,583.6014400586371,450.5767329451829,893.8481331722941
1533059196.139,498.46347739326785,786.3767484421979,689.6811606700153,399.08601559925296,1090.3833429606677
1533059196.143,744.6263718951845,911.4854677763738,760.4492638023586,392.65297154784133,1168.4592763745206
1533059196.147,769.240140734128,1054.456403329121,831.1811498911333,444.1436888937713,1448.462952265924
1533059196.151,615.3946331985507,1179.5651226632967,901.9130359799082,469.8890475667362,1305.7703618127393
1533059196.155,467.69941710864884,1268.9494095603295,654.3333261474121,444.1436888937713,853.4592763745206
1533059196.159,443.08564826970553,1215.3261580025273,371.36956474874427,405.51905965066453,899.2296381872602
1533059196.1629999,627.6952160899018,1125.9784740075822,371.36956474874427,424.8313742722179,1033.8444572808903
1533059196.167,676.9227537677888,1090.2174386683516,530.543471231164,508.51367680984293,1028.4629522659243
1533059196.171,609.2317386966339,1108.0796548869232,565.8913057537673,502.06745029111283,1101.1518668277056
1533059196.175,504.6263718951846,1108.0796548869232,389.07969905361426,373.340656926288,1052.6907525074828
1533059196.178,449.235939715381,1036.5941871105495,336.021730226141,373.340656926288,883.0740954681509
1533059196.1820002,547.7036181273959,947.2465031156041,530.543471231164,341.14907173459295,718.8444572808904
1533059196.186,480.0,911.4854677763738,601.2753573199387,238.1676370427331,818.4629522659243
1533059196.19,381.5449246442263,804.2389646607695,707.3912949748853,257.47995166428643,982.6925904531847
1533059196.194,387.69521608990186,768.5145322236262,725.0652122361869,366.8944304075579,920.7666859213357
1533059196.198,356.93115580528286,840.0,707.3912949748853,366.8944304075579,944.9999999999998
1533059196.2020001,504.6263718951846,929.3476839949453,654.3333261474121,289.658354388663,656.924066586147
1533059196.206,676.9227537677888,1125.9784740075822,707.3912949748853,321.84993958035807,745.7685238670375
1533059196.21,609.2317386966339,1179.5651226632967,848.8550671524349,386.20674502911123,880.3833429606677
1533059196.214,504.6263718951846,1090.2174386683516,884.2029016750382,418.39833022080626,629.9999999999998
1533059196.217,510.7766633408602,1018.731970891978,848.8550671524349,527.8128089640778,667.6925904531847
1533059196.221,701.5491256629733,875.7610353392305,760.4492638023586,592.1827968801495,778.0740954681509
1533059196.225,855.3946331985507,929.3476839949453,636.6594088861103,572.8704822585961,918.0759334138527
1533059196.2289999,806.1544924644227,1036.5941871105495,636.6594088861103,605.0620674502911,996.1518668277055
1533059196.2329998,627.6952160899018,822.1377837814284,707.3912949748853,553.5713501043612,1119.998162054298
1533059196.2370002,486.1628945019167,714.8912806658242,725.0652122361869,450.5767329451829,1052.6907525074828
1533059196.2410002,646.1586934831697,822.1377837814284,742.7391294974885,527.8128089640778,1176.5370477340755
1533059196.245,861.5449246442262,875.7610353392305,866.5289844137365,675.8650994177743,958.4592763745206
1533059196.2489998,750.7766633408602,929.3476839949453,848.8550671524349,527.8128089640778,608.4629522659243
1533059196.2529998,578.467678412015,875.7610353392305,778.1231810636601,405.51905965066453,1025.7666859213357
1533059196.2570002,535.3904321798036,875.7610353392305,760.4492638023586,418.39833022080626,1093.0740954681507
1533059196.26,664.6221708764375,1108.0796548869232,725.0652122361869,411.95210370207616,931.540723625479
1533059196.264,812.3173869663395,1108.0796548869232,778.1231810636601,457.00977699659455,856.1555427191092
1533059196.268,756.9269547865357,982.9709355527474,742.7391294974885,502.06745029111283,729.6129811479282
1533059196.272,707.699417108649,965.1087193341758,760.4492638023586,560.0043941557728,802.3074095468149
1533059196.276,553.8539095730716,965.1087193341758,831.1811498911333,495.6344062397012,743.0777713595545
1533059196.28,529.240140734128,875.7610353392305,778.1231810636601,431.2644183236295,675.7703618127393
1533059196.284,707.699417108649,875.7610353392305,725.0652122361869,502.06745029111283,915.3851809063696
1533059196.2879999,683.0856482697054,965.1087193341758,831.1811498911333,540.6920795342195,1020.3851809063696
1533059196.292,492.3131859475923,1000.8697546734063,901.9130359799082,553.5713501043612,980.0018379457016
1533059196.296,295.39043217980367,965.1087193341758,760.4492638023586,547.1251235856311,888.4611143202225
1533059196.3,356.93115580528286,875.7610353392305,689.6811606700153,547.1251235856311,411.92222864044516
1533059196.303,584.6179698576905,893.6232515578021,654.3333261474121,547.1251235856311,877.6925904531847
1533059196.3070002,590.7808643596073,911.4854677763738,636.6594088861103,514.9467208612546,1219.6166570393318
1533059196.311,504.6263718951846,857.8622162185716,778.1231810636601,527.8128089640778,1195.3833429606677
1533059196.315,418.471879430762,750.6523160050547,848.8550671524349,560.0043941557728,1351.5352097883735
1533059196.319,455.38623116105657,643.4058128894505,901.9130359799082,547.1251235856311,888.4611143202225
1533059196.323,689.2359397153809,732.7534968843959,831.1811498911333,553.5713501043612,662.3055716011131
1533059196.3270001,695.3862311610567,786.3767484421979,742.7391294974885,592.1827968801495,718.8444572808904
1533059196.331,572.3173869663394,840.0,689.6811606700153,572.8704822585961,791.5388856797772
1533059196.335,473.8497085543244,822.1377837814284,778.1231810636601,482.76831813687795,823.8444572808904
1533059196.339,480.0,768.5145322236262,1025.702890896156,444.1436888937713,866.924066586147
1533059196.342,683.0856482697054,893.6232515578021,901.9130359799082,482.76831813687795,799.6166570393318
1533059196.346,793.8539095730715,1054.456403329121,707.3912949748853,553.5713501043612,856.1555427191092
1533059196.35,695.3862311610567,1054.456403329121,778.1231810636601,579.3167087773262,1125.3851809063697
1533059196.3539999,467.69941710864884,929.3476839949453,937.2608705025115,463.4560035153246,1154.9999999999998
1533059196.3579998,381.5449246442263,857.8622162185716,990.3188393299847,379.7737009776996,969.2278002415584
1533059196.3620002,627.6952160899018,857.8622162185716,901.9130359799082,540.6920795342195,716.1537047734074
1533059196.3660002,732.3131859475923,840.0,778.1231810636601,566.4374382071844,745.7685238670375
1533059196.37,584.6179698576905,911.4854677763738,672.0072434087136,514.9467208612546,826.540723625479
1533059196.3739998,430.7724623221131,929.3476839949453,707.3912949748853,495.6344062397012,850.7685238670375
1533059196.3779998,375.3946331985507,768.5145322236262,760.4492638023586,431.2644183236295,565.3833429606677
1533059196.3820002,584.6179698576905,714.8912806658242,636.6594088861103,489.2013621882896,487.3074095468149
1533059196.385,720.0,857.8622162185716,495.15941966499236,502.06745029111283,990.7703618127393
1533059196.389,658.471879430762,947.2465031156041,477.4855024036907,418.39833022080626,1020.3851809063696
1533059196.393,627.6952160899018,1018.731970891978,548.2173884924656,437.71064484235967,756.5370477340754
1533059196.397,596.9311558052827,1018.731970891978,742.7391294974885,437.71064484235967,829.231476132962
1533059196.401,720.0,840.0,760.4492638023586,418.39833022080626,923.4629522659243
1533059196.405,849.2317386966339,732.7534968843959,565.8913057537673,527.8128089640778,909.998162054298
1533059196.409,744.6263718951845,732.7534968843959,565.8913057537673,482.76831813687795,864.2278002415584
1533059196.4129999,584.6179698576905,679.1302453265937,583.6014400586371,315.40371306162797,629.9999999999998
1533059196.417,516.9269547865357,804.2389646607695,512.8695539698623,289.658354388663,866.924066586147
1533059196.421,560.004201018747,947.2465031156041,565.8913057537673,334.7160276831813,1149.6129811479282
1533059196.425,627.6952160899018,911.4854677763738,672.0072434087136,399.08601559925296,1208.8426193351886
1533059196.428,510.7766633408602,822.1377837814284,654.3333261474121,354.0283423047346,1152.3092474925168
1533059196.4320002,418.471879430762,786.3767484421979,672.0072434087136,347.595298253323,1119.998162054298
1533059196.436,381.5449246442263,840.0,565.8913057537673,328.2829836317697,853.4592763745206
1533059196.44,424.6221708764376,804.2389646607695,424.42753357621746,263.91299571569806,753.8462952265922
1533059196.444,590.7808643596073,768.5145322236262,583.6014400586371,328.2829836317697,1004.2296381872602
1533059196.448,590.7808643596073,786.3767484421979,778.1231810636601,379.7737009776996,619.231476132962
1533059196.4520001,516.9269547865357,732.7534968843959,742.7391294974885,366.8944304075579,546.5370477340754
1533059196.456,473.8497085543244,750.6523160050547,672.0072434087136,444.1436888937713,888.4611143202225
1533059196.46,578.467678412015,875.7610353392305,654.3333261474121,521.3797649126661,866.924066586147
1533059196.464,769.240140734128,911.4854677763738,654.3333261474121,547.1251235856311,1251.9222286404452
1533059196.467,756.9269547865357,982.9709355527474,565.8913057537673,527.8128089640778,1464.6129811479284
1533059196.471,633.8455075355773,965.1087193341758,548.2173884924656,508.51367680984293,1203.4611143202224
1533059196.475,516.9269547865357,929.3476839949453,618.9492745812404,476.32209161814785,1014.998162054298
1533059196.4789999,498.46347739326785,947.2465031156041,654.3333261474121,444.1436888937713,810.3851809063696
1533059196.4829998,676.9227537677888,893.6232515578021,742.7391294974885,508.51367680984293,923.4629522659243
1533059196.4870002,701.5491256629733,750.6523160050547,848.8550671524349,547.1251235856311,1230.3851809063697
1533059196.4910002,603.0814472509584,786.3767484421979,901.9130359799082,527.8128089640778,1200.7703618127393
1533059196.495,449.235939715381,822.1377837814284,884.2029016750382,431.2644183236295,1071.5370477340753
1533059196.4989998,344.6179698576905,750.6523160050547,901.9130359799082,366.8944304075579,1257.3092474925168
1533059196.5029998,590.7808643596073,714.8912806658242,919.5869532412097,469.8890475667362,1144.2314761329621
1533059196.5070002,769.240140734128,804.2389646607695,919.5869532412097,592.1827968801495,1066.1555427191092
1533059196.51,664.6221708764375,857.8622162185716,1043.3768081574578,566.4374382071844,1049.9999999999998
1533059196.514,480.0,750.6523160050547,1096.4347769849312,476.32209161814785,1033.8444572808903
1533059196.518,369.231738696634,661.2680291080221,1025.702890896156,444.1436888937713,1402.6925904531847
1533059196.522,467.69941710864884,732.7534968843959,866.5289844137365,431.2644183236295,1203.4611143202224
1533059196.526,609.2317386966339,786.3767484421979,795.7970983249618,514.9467208612546,864.2278002415584
1533059196.53,596.9311558052827,732.7534968843959,919.5869532412097,585.7497528287378,780.7703618127393
1533059196.534,412.30898492884535,661.2680291080221,1007.9927565912865,476.32209161814785,988.0740954681509
1533059196.5379999,313.8539095730715,607.64477755022,1007.9927565912865,379.7737009776996,1028.4629522659243
1533059196.542,504.6263718951846,679.1302453265937,1061.0507254187598,463.4560035153246,990.7703618127393
1533059196.546,658.471879430762,607.64477755022,1096.4347769849312,540.6920795342195,1171.1555427191092
1533059196.549,646.1586934831697,446.81162577890103,1078.7608597236292,643.6866966933978,804.998162054298
1533059196.553,609.2317386966339,411.0505904396706,972.6449220686828,656.552784796221,764.61481909363
1533059196.5570002,535.3904321798036,482.5360582160443,937.2608705025115,605.0620674502911,829.231476132962
1533059196.561,713.8497085543245,571.9203451130768,954.9710048073814,720.9227727122926,449.61481909363
1533059196.565,886.1586934831697,679.1302453265937,937.2608705025115,778.8465341096341,665.0018379457016
1533059196.569,812.3173869663395,786.3767484421979,795.7970983249618,714.489728660881,853.4592763745206
1533059196.573,775.3904321798036,982.9709355527474,654.3333261474121,662.9858288476327,702.6944283988865
1533059196.5770001,640.0084020374941,1000.8697546734063,636.6594088861103,553.5713501043612,713.4629522659243
1533059196.581,590.7808643596073,714.8912806658242,795.7970983249618,463.4560035153246,1031.1537047734073
1533059196.585,750.7766633408602,571.9203451130768,901.9130359799082,527.8128089640778,1311.1518668277056
1533059196.589,800.004201018747,607.64477755022,1061.0507254187598,656.552784796221,1254.6129811479282
1533059196.592,775.3904321798036,661.2680291080221,1167.166663073706,727.3558167637043,1173.8462952265922
1533059196.596,646.1586934831697,857.8622162185716,954.9710048073814,579.3167087773262,1063.4592763745206
1533059196.6,658.471879430762,965.1087193341758,707.3912949748853,437.71064484235967,724.231476132962
1533059196.6039999,849.2317386966339,929.3476839949453,583.6014400586371,457.00977699659455,670.3833429606677
1533059196.6079998,793.8539095730715,947.2465031156041,742.7391294974885,489.2013621882896,638.0777713595545
1533059196.6120002,553.8539095730716,822.1377837814284,1007.9927565912865,399.08601559925296,831.9222286404452
1533059196.6160002,363.08144725095843,625.5435966708789,1007.9927565912865,341.14907173459295,950.3815050149659
1533059196.62,449.235939715381,625.5435966708789,1043.3768081574578,424.8313742722179,737.6907525074829
1533059196.6239998,695.3862311610567,697.0290644472526,990.3188393299847,482.76831813687795,1066.1555427191092
1533059196.6279998,726.1628945019168,804.2389646607695,813.4710155862632,399.08601559925296,856.1555427191092
1533059196.6320002,621.5449246442262,875.7610353392305,795.7970983249618,411.95210370207616,619.231476132962
1533059196.635,473.8497085543244,786.3767484421979,954.9710048073814,457.00977699659455,980.0018379457016
1533059196.639,455.38623116105657,661.2680291080221,1061.0507254187598,476.32209161814785,1268.0777713595544
1533059196.643,726.1628945019168,768.5145322236262,901.9130359799082,540.6920795342195,1146.9222286404452
1533059196.647,812.3173869663395,947.2465031156041,778.1231810636601,592.1827968801495,691.9203906947433
1533059196.651,689.2359397153809,1000.8697546734063,742.7391294974885,592.1827968801495,826.540723625479
1533059196.655,535.3904321798036,947.2465031156041,689.6811606700153,540.6920795342195,858.8462952265922
1533059196.659,406.1586934831697,822.1377837814284,672.0072434087136,469.8890475667362,1060.7685238670376
1533059196.6629999,603.0814472509584,625.5435966708789,760.4492638023586,502.06745029111283,1321.9203906947432
1533059196.667,812.3173869663395,464.67384199747266,884.2029016750382,617.9281555531144,1128.0759334138527
1533059196.671,720.0,571.9203451130768,689.6811606700153,598.6290233988794,923.4629522659243
1533059196.674,516.9269547865357,697.0290644472526,389.07969905361426,463.4560035153246,810.3851809063696
1533059196.678,418.471879430762,732.7534968843959,353.6956474874426,411.95210370207616,980.0018379457016
1533059196.6820002,560.004201018747,804.2389646607695,371.36956474874427,457.00977699659455,1203.4611143202224
1533059196.686,584.6179698576905,607.64477755022,424.42753357621746,476.32209161814785,1179.2278002415583
1533059196.69,498.46347739326785,571.9203451130768,672.0072434087136,489.2013621882896,866.924066586147
1533059196.694,375.3946331985507,571.9203451130768,760.4492638023586,450.5767329451829,880.3833429606677
1533059196.698,276.9269547865358,536.1593097738463,813.4710155862632,360.46138635614625,1173.8462952265922
1533059196.7020001,461.5491256629734,643.4058128894505,760.4492638023586,392.65297154784133,918.0759334138527
1533059196.706,615.3946331985507,750.6523160050547,795.7970983249618,482.76831813687795,1020.3851809063696
1533059196.71,547.7036181273959,750.6523160050547,954.9710048073814,514.9467208612546,1206.1518668277056
1533059196.714,443.08564826970553,697.0290644472526,990.3188393299847,495.6344062397012,974.61481909363
1533059196.717,320.0042010187471,714.8912806658242,954.9710048073814,482.76831813687795,1012.3074095468149
1533059196.721,473.8497085543244,750.6523160050547,972.6449220686828,521.3797649126661,918.0759334138527
1533059196.725,756.9269547865357,822.1377837814284,972.6449220686828,611.4951115017027,845.3815050149659
1533059196.7289999,750.7766633408602,982.9709355527474,884.2029016750382,566.4374382071844,1093.0740954681507
1533059196.7329998,560.004201018747,947.2465031156041,813.4710155862632,482.76831813687795,1138.8444572808903
1533059196.7370002,326.1544924644227,822.1377837814284,831.1811498911333,411.95210370207616,1076.9240665861469
1533059196.7410002,412.30898492884535,822.1377837814284,813.4710155862632,444.1436888937713,1036.5352097883735
1533059196.745,744.6263718951845,911.4854677763738,848.8550671524349,598.6290233988794,971.924066586147
1533059196.7489998,800.004201018747,1072.35522244978,795.7970983249618,682.298143469186,1111.9203906947432
1533059196.7529998,732.3131859475923,1072.35522244978,583.6014400586371,617.9281555531144,1017.6889145617811
1533059196.7570002,541.5407236254791,857.8622162185716,636.6594088861103,540.6920795342195,1044.6129811479282
1533059196.76,467.69941710864884,661.2680291080221,813.4710155862632,437.71064484235967,958.4592763745206
1533059196.764,664.6221708764375,697.0290644472526,831.1811498911333,424.8313742722179,379.61665703933187
1533059196.768,713.8497085543245,607.64477755022,866.5289844137365,547.1251235856311,457.6925904531847
1533059196.772,664.6221708764375,607.64477755022,848.8550671524349,540.6920795342195,942.3092474925168
1533059196.776,541.5407236254791,804.2389646607695,795.7970983249618,457.00977699659455,743.0777713595545
1533059196.78,541.5407236254791,732.7534968843959,866.5289844137365,411.95210370207616,589.6166570393318
1533059196.784,676.9227537677888,643.4058128894505,848.8550671524349,392.65297154784133,1039.2314761329621
1533059196.7879999,738.4634773932679,804.2389646607695,725.0652122361869,405.51905965066453,794.2296381872602
1533059196.792,652.3089849288452,965.1087193341758,654.3333261474121,334.7160276831813,681.1518668277055
1533059196.796,443.08564826970553,893.6232515578021,707.3912949748853,289.658354388663,969.2278002415584
1533059196.799,430.7724623221131,875.7610353392305,618.9492745812404,276.7922662858398,969.2278002415584
1533059196.803,640.0084020374941,840.0,530.543471231164,328.2829836317697,944.9999999999998
1533059196.8070002,689.2359397153809,732.7534968843959,601.2753573199387,334.7160276831813,872.3055716011131
1533059196.811,572.3173869663394,625.5435966708789,548.2173884924656,283.2253103372514,869.61481909363
1533059196.815,455.38623116105657,714.8912806658242,495.15941966499236,302.53762495880466,804.998162054298
1533059196.819,424.6221708764376,822.1377837814284,618.9492745812404,341.14907173459295,689.2296381872602
1533059196.823,615.3946331985507,804.2389646607695,689.6811606700153,437.71064484235967,788.8481331722941
1533059196.8270001,676.9227537677888,893.6232515578021,636.6594088861103,457.00977699659455,915.3851809063696
1533059196.831,504.6263718951846,929.3476839949453,760.4492638023586,405.51905965066453,912.6944283988865
1533059196.835,387.69521608990186,893.6232515578021,725.0652122361869,289.658354388663,796.9203906947433
1533059196.839,369.231738696634,857.8622162185716,707.3912949748853,257.47995166428643,616.540723625479
1533059196.842,560.004201018747,750.6523160050547,866.5289844137365,341.14907173459295,1106.5388856797772
1533059196.846,713.8497085543245,786.3767484421979,919.5869532412097,354.0283423047346,1286.9240665861469
1533059196.85,670.7724623221131,965.1087193341758,954.9710048073814,405.51905965066453,953.0777713595545
1533059196.8539999,566.1544924644227,965.1087193341758,972.6449220686828,424.8313742722179,998.8481331722941
1533059196.8579998,492.3131859475923,947.2465031156041,1007.9927565912865,411.95210370207616,845.3815050149659
1533059196.8620002,652.3089849288452,929.3476839949453,1096.4347769849312,418.39833022080626,632.6907525074829
1533059196.8660002,732.3131859475923,911.4854677763738,990.3188393299847,379.7737009776996,721.540723625479
1533059196.87,658.471879430762,911.4854677763738,884.2029016750382,386.20674502911123,1090.3833429606677
1533059196.8739998,584.6179698576905,875.7610353392305,919.5869532412097,366.8944304075579,1203.4611143202224
1533059196.8779998,492.3131859475923,893.6232515578021,954.9710048073814,341.14907173459295,732.3092474925168
1533059196.881,596.9311558052827,804.2389646607695,1007.9927565912865,405.51905965066453,885.7703618127393
1533059196.885,738.4634773932679,697.0290644472526,972.6449220686828,457.00977699659455,1093.0740954681507
1533059196.889,726.1628945019168,679.1302453265937,1114.1086942462327,514.9467208612546,834.6129811479282
1533059196.893,664.6221708764375,732.7534968843959,1290.9565179899541,617.9281555531144,1152.3092474925168
