timestamps,TP9,AF7,AF8,TP10,Right AUX
1533058199.795,1080.348042262275,848.003588878378,609.4436189532773,1197.1259335565283,882.1478303316806
1533058199.799,1153.178371659416,840.0081920049932,586.8713884761435,1219.7579191346895,1074.8359581738305
1533058199.803,1158.0360472343073,792.0030427447118,625.5638104672281,1204.6716456348183,873.1146108984406
1533058199.8070002,1206.5879428216285,704.0045251075201,693.2805018986298,1265.0270409477207,472.6871001721347
1533058199.811,1179.8831572405222,840.0081920049932,661.0401188707282,1270.0592325521502,867.0965752896744
1533058199.815,1143.4679925419516,888.0133412652747,651.3653623906225,1222.2765902652586,1195.2706625902422
1533058199.819,1148.325668116843,896.0087381386594,661.0401188707282,1179.520988926088,1074.8359581738305
1533058199.823,1206.5879428216285,968.0000780190952,644.9133234274394,1131.7331959824876,1050.7514836985845
1533058199.8270001,1279.423244251088,864.0107666351339,741.6542842991581,1141.7975791913468,671.3994296431416
1533058199.83,1199.308887507769,824.0010142482373,760.9971933300315,1182.0345093999483,827.9546797523316
1533058199.8339999,1128.8999378495962,952.0092842723257,722.3047713389468,1184.5480298738087,993.5493153148524
1533058199.8379998,1167.7464263517716,911.999531885429,719.0820538220242,1187.0667010043778,511.8289957094777
1533058199.842,1245.434431323804,888.0133412652747,767.4492322932145,1194.612413082668,746.6680368933536
1533058199.846,1252.7184586699816,920.0113127688002,819.0391282813275,1217.2443986608291,915.2655242401664
1533058199.85,1141.0416407706653,880.0015603819035,802.9189367673767,1169.4617563739375,936.3409809110294
1533058199.8539999,1104.6264760720946,880.0015603819035,770.6719498101371,1116.6469224826164,1267.5240860159802
1533058199.8579998,1102.19515226849,872.0061635085187,738.4249628528976,1119.1604429564768,734.6196336356396
1533058199.8620002,1116.7632069608453,904.0041350120442,690.0577843817073,1104.0690187998969,475.6961179765177
1533058199.8660002,1216.303293971411,920.0113127688002,683.612349347862,1114.1282513520473,927.3077614777894
1533058199.87,1165.320074580485,824.0010142482373,751.3224368499258,1116.6469224826164,930.3229453022634
1533058199.873,1087.6320696084526,768.000468114571,735.202245335975,1126.7061550347667,671.3994296431416
1533058199.877,1102.19515226849,768.000468114571,677.160310384679,1121.6739634303372,921.2897258690234
1533058199.881,1153.178371659416,784.007645871327,673.9375928677564,1104.0690187998969,1053.7605015029674
1533058199.885,1213.8719701678062,792.0030427447118,715.8527323757637,1111.6147308781867,1168.1710042905222
1533058199.889,1199.308887507769,800.0148236280829,686.8350668647846,1146.8246201390675,1138.0623281864193
1533058199.893,1182.314481044127,808.0102205014678,654.5880799075451,1212.2122070563996,788.8189502350796
1533058199.897,1162.8887507768802,800.0148236280829,615.8956579164604,1182.0345093999483,806.8792230814686
1533058199.901,1192.0248601615913,816.0056173748525,625.5638104672281,1174.4887973216582,716.5593607892506
1533058199.905,1301.2703542573029,800.0148236280829,699.7325408618129,1222.2765902652586,728.6015980268736
1533058199.909,1291.5599751398386,768.000468114571,696.5098233448904,1202.1529745042492,701.5019397271536
1533058199.9129999,1213.8719701678062,752.0096743678015,693.2805018986298,1194.612413082668,662.3662102099016
1533058199.9160001,1150.7520198881296,704.0045251075201,686.8350668647846,1184.5480298738087,951.3984019731264
1533058199.92,1250.2871348663768,672.0065536039946,632.0158494304112,1212.2122070563996,924.2987436734064
1533058199.924,1303.7016780609074,744.0142774944168,686.8350668647846,1197.1259335565283,776.7705469773656
1533058199.928,1233.297700435053,720.011702864276,719.0820538220242,1177.0074684522274,951.3984019731264
1533058199.9320002,1182.314481044127,624.0014043437131,696.5098233448904,1197.1259335565283,957.4164375818924
1533058199.936,1119.189558732132,640.0085821004691,696.5098233448904,1197.1259335565283,836.9878991855716
1533058199.94,1211.4456183965196,696.0091282341353,696.5098233448904,1197.1259335565283,755.6950903065026
1533058199.944,1228.4400248601617,680.0019504773793,699.7325408618129,1199.6394540303886,719.5683785936336
1533058199.948,1162.8887507768802,616.0060074703283,706.184579824996,1197.1259335565283,960.4316214063664
1533058199.9520001,1138.6152889993787,568.0008582100469,683.612349347862,1187.0667010043778,788.8189502350796
1533058199.955,1070.6376631448106,576.0126390934181,648.136040944362,1131.7331959824876,544.9466896179637
1533058199.9589999,1162.8887507768802,624.0014043437131,661.0401188707282,1106.587689930466,1135.0533103820362
1533058199.9629998,1250.2871348663768,728.0070997376608,731.9795278190525,1159.402523821787,1165.1619864861393
1533058199.967,1206.5879428216285,592.0034328401877,806.1416542842993,1202.1529745042492,683.4416668807646
1533058199.971,1206.5879428216285,520.012092959752,770.6719498101371,1171.9752768477979,665.3752280142846
1533058199.975,1196.8775637041642,640.0085821004691,719.0820538220242,1134.2518671130567,1095.9114148446934
1533058199.9789999,1201.7352392790556,608.0106105969436,715.8527323757637,1121.6739634303372,927.3077614777894
1533058199.9829998,1252.7184586699816,704.0045251075201,764.226514776292,1156.883852691218,963.4406392107494
1533058199.9870002,1262.428837787446,768.000468114571,783.5694238071654,1159.402523821787,1321.7172365953293
1533058199.9910002,1221.155997513984,655.9993758472386,748.0997193330032,1179.520988926088,1062.7937209362074
1533058199.995,1162.8887507768802,680.0019504773793,709.4072973419186,1169.4617563739375,1047.7424658942014
1533058199.998,1145.8943443132382,856.0153697617492,644.9133234274394,1144.3110996652072,620.2152968681756
1533058200.002,1211.4456183965196,840.0081920049932,632.0158494304112,1154.3703322173576,547.9557074223467
1533058200.006,1240.5767557489125,736.0024966110456,725.5274888558694,1202.1529745042492,978.4918942527554
1533058200.01,1182.314481044127,728.0070997376608,738.4249628528976,1219.7579191346895,1225.3731726742542
1533058200.014,1124.0472343070232,824.0010142482373,677.160310384679,1166.9430852433684,1071.8269403694474
1533058200.018,1155.6096954630207,856.0153697617492,586.8713884761435,1156.883852691218,638.2755697145647
1533058200.022,1172.6041019266627,792.0030427447118,577.1966319960378,1151.856811743497,596.1308223929296
1533058200.026,1187.1671845867,848.003588878378,625.5638104672281,1146.8246201390675,701.5019397271536
1533058200.03,1194.4512119328776,792.0030427447118,612.6663364701999,1146.8246201390675,529.8892685558667
1533058200.034,1119.189558732132,672.0065536039946,596.5461449562491,1114.1282513520473,806.8792230814686
1533058200.0379999,1017.228091982598,664.0111567306099,544.9496450387982,1063.8320885912951,707.5261413560106
1533058200.0410001,1075.4903666873836,744.0142774944168,551.4016840019813,1073.8913211434456,373.3340184466768
1533058200.045,1184.7408328154136,952.0092842723257,619.118375433383,1101.5554983260363,752.6860725021196
1533058200.049,1141.0416407706653,1008.0098304059919,615.8956579164604,1096.5284573783156,806.8792230814686
1533058200.053,1116.7632069608453,952.0092842723257,641.6906059105169,1104.0690187998969,647.3087891478046
1533058200.0570002,1094.9111249223122,952.0092842723257,632.0158494304112,1104.0690187998969,948.3832181486524
1533058200.061,1116.7632069608453,880.0015603819035,612.6663364701999,1086.4640741694564,990.5341314903784
1533058200.065,1175.0304536979493,800.0148236280829,683.612349347862,1086.4640741694564,975.4828764483724
1533058200.069,1133.7576134244875,816.0056173748525,693.2805018986298,1124.1926345609063,987.5251136859954
1533058200.073,1158.0360472343073,840.0081920049932,667.4855539045733,1139.2789080607777,638.2755697145647
1533058200.0770001,1126.4735860783096,832.0127951316084,628.7931319134887,1099.041977852176,752.6860725021196
1533058200.08,1080.348042262275,711.9999219809048,641.6906059105169,1076.404841617306,1213.3309354366313
1533058200.0839999,1182.314481044127,728.0070997376608,673.9375928677564,1076.404841617306,846.0211186188116
1533058200.0879998,1136.183965195774,936.0021065155697,670.7082714214959,1086.4640741694564,358.2765973845798
1533058200.092,1058.4959602237416,984.0072557758511,680.3830279016016,1096.5284573783156,843.0121008144284
1533058200.096,1034.2175264139219,911.999531885429,632.0158494304112,1071.3778006695852,876.1297947229144
1533058200.1,1082.7743940335613,928.0067096421849,599.7688624731717,1036.1679114087044,623.2243146725586
1533058200.1039999,1177.4568054692356,992.0026526492359,641.6906059105169,1063.8320885912951,885.1630141561544
1533058200.1079998,1121.6208825357367,992.0026526492359,709.4072973419186,1139.2789080607777,858.0633558564346
1533058200.1120002,1053.6432566811686,920.0113127688002,728.7502063727919,1136.765387586917,710.5351591603936
1533058200.1160002,1056.0696084524552,792.0030427447118,667.4855539045733,1114.1282513520473,406.4517123551628
1533058200.12,1124.0472343070232,720.011702864276,622.3410929503056,1154.3703322173576,328.16792128047683
1533058200.123,1196.8775637041642,808.0102205014678,657.8107974244676,1187.0667010043778,885.1630141561544
1533058200.127,1223.5823492852705,952.0092842723257,683.612349347862,1219.7579191346895,993.5493153148524
1533058200.131,1199.308887507769,1032.0124050361326,661.0401188707282,1214.7308781869688,701.5019397271536
1533058200.135,1124.0472343070232,1040.0078019095174,644.9133234274394,1156.883852691218,939.3561647355034
1533058200.139,1119.189558732132,984.0072557758511,619.118375433383,1101.5554983260363,1104.9446342779333
1533058200.143,1313.4120571783717,976.0118589024664,670.7082714214959,1124.1926345609063,921.2897258690234
1533058200.147,1318.2647607209447,1040.0078019095174,709.4072973419186,1164.429564769508,833.9788813811884
1533058200.151,1126.4735860783096,1048.003198782902,699.7325408618129,1134.2518671130567,978.4918942527554
1533058200.155,1080.348042262275,1016.0052272793766,690.0577843817073,1109.1012104043264,942.3651825398864
1533058200.159,1077.9216904909883,968.0000780190952,609.4436189532773,1081.4370332217356,719.5683785936336
1533058200.1620002,1133.7576134244875,944.0138873989409,661.0401188707282,1073.8913211434456,728.6015980268736
1533058200.1660001,1160.4623990055936,968.0000780190952,786.7987452534259,1086.4640741694564,614.1910952393187
1533058200.17,1136.183965195774,856.0153697617492,790.0214627703484,1053.7728560391447,794.8369858438456
1533058200.174,1165.320074580485,664.0111567306099,773.8946673270597,1076.404841617306,553.9799090512037
1533058200.178,1063.353635798633,392.0038229356635,754.5517582961863,1116.6469224826164,298.0654111964648
1533058200.1820002,1031.7911746426353,240.0093622914208,786.7987452534259,1041.1949523564253,740.6438352644966
1533058200.186,1036.6488502175266,296.009908425087,822.2684497275882,960.7159412825133,599.1398401973127
1533058200.19,988.0919825978871,184.0088161577546,783.5694238071654,973.2938449652329,463.6538807388947
1533058200.194,881.272840273462,80.00312076380695,783.5694238071654,905.3875869173318,791.8279680394626
1533058200.198,893.4095711622127,152.01084465422912,728.7502063727919,827.4220963172803,927.3077614777894
1533058200.2020001,934.6824114356745,272.0073337949463,683.612349347862,807.3036312129794,674.4084474475246
1533058200.205,934.6824114356745,288.0145115517023,806.1416542842993,799.7579191346895,719.5683785936336
1533058200.2089999,842.4263517712867,199.99960990452414,815.816410764405,809.8171516868399,930.3229453022634
1533058200.2129998,752.6016159105036,320.0124830552278,770.6719498101371,794.7308781869687,864.0875574852914
1533058200.217,776.8800497203233,455.9997659427145,744.8770018160807,729.338140612928,846.0211186188116
1533058200.221,852.136730888751,520.012092959752,728.7502063727919,746.9430852433684,629.2485163014156
1533058200.225,920.114356743319,520.012092959752,806.1416542842993,797.2443986608291,978.4918942527554
1533058200.2289999,854.5680546923556,504.00491520299596,812.5936932474824,792.2122070563995,770.7525113685996
1533058200.2329998,789.0167806090741,496.0095183296112,783.5694238071654,792.2122070563995,520.8560491226267
1533058200.2370002,772.0223741454321,455.9997659427145,738.4249628528976,767.0667010043778,1059.7847031318245
1533058200.2410002,774.4487259167187,424.001794439189,673.9375928677564,731.8568117434971,1113.9778537111733
1533058200.245,820.5792417650716,392.0038229356635,780.3467062902428,749.4617563739375,936.3409809110294
1533058200.248,806.0111870727161,304.0053052984718,873.8583457157008,787.1851661086787,731.6106158312566
1533058200.252,706.4760720944688,232.01396541803607,815.816410764405,741.9160442956476,626.2333324769417
1533058200.256,733.1808576755751,288.0145115517023,754.5517582961863,736.883852691218,800.8611874727026
1533058200.26,791.4431323803607,416.0063975658042,744.8770018160807,731.8568117434971,993.5493153148524
1533058200.264,784.1591050341829,512.0003120763807,744.8770018160807,736.883852691218,668.3842458186676
1533058200.268,837.5736482287136,599.9988297135724,741.6542842991581,794.7308781869687,644.2997713434216
1533058200.272,801.1535114978249,640.0085821004691,673.9375928677564,759.5209889260879,701.5019397271536
1533058200.276,762.3119950279679,616.0060074703283,661.0401188707282,746.9430852433684,538.9224879891067
1533058200.28,789.0167806090741,560.0054613366622,706.184579824996,767.0667010043778,990.5341314903784
1533058200.284,895.8359229334992,584.0080359668028,722.3047713389468,767.0667010043778,1138.0623281864193
1533058200.2870002,859.4207582349287,688.0137313607505,693.2805018986298,729.338140612928,957.4164375818924
1533058200.2910001,808.4375388440027,792.0030427447118,651.3653623906225,769.5802214782383,806.8792230814686
1533058200.295,852.136730888751,840.0081920049932,677.160310384679,845.0270409477207,686.4506846851476
1533058200.299,854.5680546923556,792.0030427447118,648.136040944362,774.6124130826679,839.9969169899546
1533058200.303,890.9832193909263,752.0096743678015,677.160310384679,709.2196755086271,1065.8027387405905
1533058200.3070002,939.5351149782475,720.011702864276,748.0997193330032,777.1259335565283,855.0543380520514
1533058200.311,886.125543816035,599.9988297135724,699.7325408618129,799.7579191346895,818.9214603190916
1533058200.315,861.8520820385335,568.0008582100469,622.3410929503056,762.0345093999483,906.2323048069265
1533058200.319,881.272840273462,632.0131852270844,535.2814924880305,759.5209889260879,785.8037664106056
1533058200.323,871.5624611559977,655.9993758472386,528.8294535248474,757.0074684522275,704.5171235516276
1533058200.3270001,905.5512740832817,648.0039789738538,557.8537229651644,797.2443986608291,812.9034247103256
1533058200.33,920.114356743319,711.9999219809048,490.1370315337627,847.5457120782899,827.9546797523316
1533058200.3339999,864.27843380982,672.0065536039946,470.7875185735514,824.9085758434198,671.3994296431416
1533058200.3379998,864.27843380982,608.0106105969436,464.3354796103683,822.3950553695595,529.8892685558667
1533058200.342,973.5239279055315,664.0111567306099,470.7875185735514,817.3628637651299,680.4264830562906
1533058200.346,1009.9440646364203,720.011702864276,561.0764404820869,804.7901107391191,1116.9868715155565
1533058200.35,968.6712243629586,864.0107666351339,515.9319795278192,867.6641771825906,924.2987436734064
1533058200.3539999,924.9720323182103,1008.0098304059919,441.7632491332344,880.2369302086014,981.5070780772294
1533058200.3579998,920.114356743319,1040.0078019095174,386.9506356281989,837.4864795261394,1243.4396115407342
1533058200.3620002,997.8023617153514,1111.999141789953,377.2758791480932,865.1506567087301,948.3832181486524
1533058200.3660002,1063.353635798633,1200.0140434371312,419.1910186561005,882.7556013391705,761.7192919353596
1533058200.37,1017.228091982598,1208.009440310516,435.31781409938924,882.7556013391705,581.0734013308327
1533058200.373,963.8135487880674,1096.0083480431836,393.39607066204405,897.8418748390418,755.6950903065026
1533058200.377,995.3760099440648,1088.0129511697987,309.55918771669155,887.7826422868914,556.9889268555867
1533058200.381,1114.336855189559,1128.0063195467092,393.39607066204405,963.2346124130825,541.9315057934897
1533058200.385,1153.178371659416,1088.0129511697987,490.1370315337627,1016.0494463044037,809.8944069059424
1533058200.389,1087.6320696084526,968.0000780190952,519.1546970447417,1005.9850630955445,641.2907535390386
1533058200.393,1114.336855189559,904.0041350120442,519.1546970447417,1028.6221993304143,563.0069624643527
1533058200.397,1119.189558732132,832.0127951316084,480.46227505365704,1041.1949523564253,731.6106158312566
1533058200.401,1167.7464263517716,752.0096743678015,538.504210004953,1066.3456090651557,906.2323048069265
1533058200.405,1279.423244251088,808.0102205014678,677.160310384679,1106.587689930466,942.3651825398864
1533058200.409,1238.150403977626,888.0133412652747,667.4855539045733,1139.2789080607777,611.1820774349356
1533058200.4120002,1235.7240522063396,896.0087381386594,606.2209014363548,1207.1851661086787,602.1488580016957
1533058200.4160001,1308.5543816034808,816.0056173748525,628.7931319134887,1282.631985578161,1017.6337897900984
1533058200.42,1352.2535736482287,704.0045251075201,599.7688624731717,1355.570435230492,737.6348174601136
1533058200.424,1420.2311995027967,640.0085821004691,632.0158494304112,1380.7159412825135,779.7857308018396
1533058200.428,1478.4984462399007,640.0085821004691,651.3653623906225,1393.2938449652331,1062.7937209362074
1533058200.4320002,1442.08328154133,592.0034328401877,641.6906059105169,1453.6492402781355,794.8369858438456
1533058200.436,1349.8272218769423,488.0141214562264,673.9375928677564,1433.5307751738346,990.5341314903784
1533058200.44,1369.2479801118707,408.0110006924195,628.7931319134887,1443.590007725985,900.2142691981604
1533058200.444,1456.6463642013673,360.005851432138,677.160310384679,1521.5554983260365,511.8289957094777
1533058200.448,1502.7768800497204,304.0053052984718,796.4668978041936,1591.975276847798,572.0401818975927
1533058200.4520001,1517.3399627097576,399.99921980904827,722.3047713389468,1609.5802214782382,701.5019397271536
1533058200.455,1493.066500932256,520.012092959752,615.8956579164604,1579.4025238217873,864.0875574852914
1533058200.4589999,1483.3561218147918,512.0003120763807,583.6486709592209,1579.4025238217873,960.4316214063664
1533058200.4629998,1580.4648850217527,568.0008582100469,661.0401188707282,1597.0023177955188,927.3077614777894
1533058200.467,1653.2952144188937,568.0008582100469,735.202245335975,1664.90857584342,885.1630141561544
1533058200.471,1558.6128029832194,488.0141214562264,690.0577843817073,1680.0,671.3994296431416
1533058200.475,1451.7936606587944,376.013029188894,690.0577843817073,1634.7308781869688,1041.7182642653445
1533058200.4789999,1480.924798011187,352.0104545587533,670.7082714214959,1602.0345093999485,1321.7172365953293
1533058200.4829998,1546.4760720944687,496.0095183296112,702.9552583787355,1591.975276847798,936.3409809110294
1533058200.4870002,1573.180857675575,584.0080359668028,751.3224368499258,1617.1259335565285,788.8189502350796
1533058200.4910002,1512.487259167185,528.0074898331367,731.9795278190525,1629.6986865825393,734.6196336356396
1533058200.494,1480.924798011187,520.012092959752,731.9795278190525,1602.0345093999485,617.2062790637926
1533058200.498,1512.487259167185,536.0028867065214,719.0820538220242,1576.8838526912182,788.8189502350796
1533058200.502,1541.6183965195773,560.0054613366622,754.5517582961863,1589.4617563739378,740.6438352644966
1533058200.506,1590.1752641392172,592.0034328401877,793.2441802872711,1614.6072624259593,722.5773963980166
1533058200.51,1570.7545059042884,616.0060074703283,744.8770018160807,1612.093741952099,569.0311640932097
1533058200.514,1478.4984462399007,624.0014043437131,719.0820538220242,1579.4025238217873,797.8460036482286
1533058200.518,1459.077688004972,576.0126390934181,657.8107974244676,1541.6739634303374,806.8792230814686
1533058200.522,1502.7768800497204,655.9993758472386,683.612349347862,1488.8591295390163,897.2052513937774
1533058200.526,1534.3343691733996,760.0050712411863,799.6962192504542,1503.9505536955962,1192.2554787657682
1533058200.53,1512.487259167185,824.0010142482373,790.0214627703484,1536.6469224826164,1116.9868715155565
1533058200.534,1483.3561218147918,911.999531885429,757.7744758131089,1501.4370332217359,891.1810497649204
1533058200.5370002,1451.7936606587944,880.0015603819035,686.8350668647846,1476.2863765130055,903.2232870025434
1533058200.5410001,1459.077688004972,832.0127951316084,664.2628363876507,1471.2541849085758,846.0211186188116
1533058200.545,1527.05531385954,776.0122489979423,751.3224368499258,1493.8913211434458,924.2987436734064
1533058200.549,1522.1976382846487,752.0096743678015,731.9795278190525,1541.6739634303374,1005.5915525524754
1533058200.553,1427.5152268489744,744.0142774944168,677.160310384679,1521.5554983260365,797.8460036482286
1533058200.5570002,1393.5264139216908,736.0024966110456,664.2628363876507,1481.318568117435,590.1066207640727
1533058200.561,1417.8048477315103,768.000468114571,709.4072973419186,1481.318568117435,770.7525113685996
1533058200.565,1488.2088253573647,760.0050712411863,751.3224368499258,1498.9235127478753,1008.6005703568584
1533058200.569,1454.2200124300807,768.000468114571,741.6542842991581,1491.3778006695854,927.3077614777894
1533058200.573,1344.969546302051,736.0024966110456,715.8527323757637,1456.1679114087046,1201.2886981990082
1533058200.5770001,1342.5431945307644,640.0085821004691,628.7931319134887,1453.6492402781355,1207.3128998278653
1533058200.58,1374.105655686762,672.0065536039946,528.8294535248474,1446.1086788565542,782.7947486062226
1533058200.5839999,1405.6631448104413,792.0030427447118,606.2209014363548,1418.4445016739635,743.6528530688796
1533058200.5879998,1408.094468614046,792.0030427447118,715.8527323757637,1438.5629667782641,903.2232870025434
1533058200.592,1369.2479801118707,711.9999219809048,696.5098233448904,1433.5307751738346,734.6196336356396
1533058200.596,1327.9801118707271,680.0019504773793,651.3653623906225,1428.503734226114,547.9557074223467
1533058200.6,1403.2367930391547,711.9999219809048,664.2628363876507,1448.6221993304143,951.3984019731264
1533058200.6039999,1466.3617153511498,720.011702864276,722.3047713389468,1468.7406644347154,1077.8511419983045
1533058200.6079998,1366.8216283405843,688.0137313607505,709.4072973419186,1433.5307751738346,1098.9204326490765
1533058200.6120002,1344.969546302051,672.0065536039946,673.9375928677564,1378.2024208086532,1345.8078770906661
1533058200.6160002,1289.133623368552,632.0131852270844,670.7082714214959,1395.8073654390935,1123.0110731444133
1533058200.619,1264.8551895587323,608.0106105969436,667.4855539045733,1360.5974761782124,993.5493153148524
1533058200.623,1308.5543816034808,648.0039789738538,683.612349347862,1363.110996652073,1180.2132415281453
1533058200.627,1293.9912989434433,608.0106105969436,693.2805018986298,1393.2938449652331,987.5251136859954
1533058200.631,1269.7128651336236,688.0137313607505,667.4855539045733,1365.6296677826424,659.3510263854276
1533058200.635,1218.7296457426976,864.0107666351339,690.0577843817073,1360.5974761782124,885.1630141561544
1533058200.639,1179.8831572405222,840.0081920049932,648.136040944362,1307.7826422868914,1107.9536520823165
1533058200.643,1257.5711622125546,776.0122489979423,654.5880799075451,1290.177697656451,424.5181512216427
1533058200.647,1298.8440024860163,808.0102205014678,751.3224368499258,1322.8740664434713,590.1066207640727
1533058200.651,1216.303293971411,808.0102205014678,709.4072973419186,1315.3283543651814,1156.1287670528993
1533058200.655,1199.308887507769,776.0122489979423,632.0158494304112,1332.9332989956217,1038.7092464609614
1533058200.659,1218.7296457426976,792.0030427447118,586.8713884761435,1312.8148338913209,559.9979446599697
1533058200.6620002,1240.5767557489125,856.0153697617492,657.8107974244676,1249.9407674478493,403.4426945507797
1533058200.6660001,1281.8495960223743,896.0087381386594,770.6719498101371,1267.5457120782899,659.3510263854276
1533058200.67,1247.8607830950903,792.0030427447118,751.3224368499258,1282.631985578161,427.5271690260257
1533058200.674,1189.5935363579865,800.0148236280829,741.6542842991581,1287.6641771825905,346.2343601469568
1533058200.678,1179.8831572405222,792.0030427447118,709.4072973419186,1244.9085758434198,638.2755697145647
1533058200.6820002,1245.434431323804,744.0142774944168,725.5274888558694,1239.881534895699,849.0301364231946
1533058200.686,1320.6960845245494,808.0102205014678,809.3643718012219,1300.2369302086015,1119.9958893199394
1533058200.69,1296.41765071473,848.003588878378,793.2441802872711,1312.8148338913209,752.6860725021196
1533058200.694,1221.155997513984,856.0153697617492,744.8770018160807,1300.2369302086015,608.1730596305526
1533058200.698,1213.8719701678062,832.0127951316084,709.4072973419186,1287.6641771825905,1011.6095881612414
1533058200.7020001,1279.423244251088,792.0030427447118,696.5098233448904,1262.5135204738601,999.5673509236184
1533058200.705,1306.128029832194,784.007645871327,728.7502063727919,1307.7826422868914,689.4597024895306
1533058200.7089999,1276.9968924798013,808.0102205014678,757.7744758131089,1307.7826422868914,596.1308223929296
1533058200.7129998,1201.7352392790556,768.000468114571,786.7987452534259,1229.81715168684,1288.5995426868433
1533058200.717,1138.6152889993787,704.0045251075201,722.3047713389468,1199.6394540303886,1348.8168948950492
1533058200.721,1184.7408328154136,760.0050712411863,696.5098233448904,1179.520988926088,1116.9868715155565
1533058200.725,1250.2871348663768,768.000468114571,773.8946673270597,1169.4617563739375,1026.6670092233385
1533058200.7289999,1238.150403977626,736.0024966110456,757.7744758131089,1224.790110739119,957.4164375818924
1533058200.7329998,1201.7352392790556,720.011702864276,735.202245335975,1207.1851661086787,852.0391542275776
1533058200.7370002,1172.6041019266627,592.0034328401877,699.7325408618129,1156.883852691218,373.3340184466768
1533058200.7410002,1189.5935363579865,584.0080359668028,699.7325408618129,1134.2518671130567,728.6015980268736
1533058200.744,1247.8607830950903,648.0039789738538,748.0997193330032,1164.429564769508,1132.0442925776533
1533058200.748,1286.7072715972656,599.9988297135724,706.184579824996,1219.7579191346895,894.1900675693036
1533058200.752,1228.4400248601617,568.0008582100469,664.2628363876507,1207.1851661086787,888.1720319605374
1533058200.756,1131.331261653201,560.0054613366622,654.5880799075451,1222.2765902652586,1113.9778537111733
1533058200.76,1189.5935363579865,504.00491520299596,606.2209014363548,1242.3950553695595,987.5251136859954
1533058200.764,1323.1224362958362,528.0074898331367,628.7931319134887,1242.3950553695595,987.5251136859954
1533058200.768,1279.423244251088,568.0008582100469,686.8350668647846,1242.3950553695595,1053.7605015029674
1533058200.772,1141.0416407706653,496.0095183296112,693.2805018986298,1156.883852691218,1017.6337897900984
1533058200.776,1133.7576134244875,455.9997659427145,693.2805018986298,1159.402523821787,942.3651825398864
1533058200.78,1196.8775637041642,544.0146675898926,651.3653623906225,1249.9407674478493,858.0633558564346
1533058200.784,1279.423244251088,599.9988297135724,696.5098233448904,1300.2369302086015,1035.7002286565785
1533058200.7870002,1313.4120571783717,576.0126390934181,777.1239887733202,1332.9332989956217,1144.0865298152762
1533058200.7910001,1281.8495960223743,552.0100644632773,777.1239887733202,1317.8418748390418,785.8037664106056
1533058200.795,1269.7128651336236,560.0054613366622,773.8946673270597,1317.8418748390418,451.6116435012717
1533058200.799,1257.5711622125546,512.0003120763807,683.612349347862,1305.269121813031,821.9366441435654
1533058200.803,1323.1224362958362,440.008972195945,699.7325408618129,1305.269121813031,948.3832181486524
1533058200.8070002,1361.963952765693,496.0095183296112,773.8946673270597,1342.9925315477722,764.7283097397426
1533058200.811,1308.5543816034808,552.0100644632773,725.5274888558694,1360.5974761782124,755.6950903065026
1533058200.815,1272.13921690491,592.0034328401877,728.7502063727919,1365.6296677826424,656.3420085810446
1533058200.819,1255.144810441268,592.0034328401877,715.8527323757637,1307.7826422868914,662.3662102099016
1533058200.823,1279.423244251088,576.0126390934181,751.3224368499258,1305.269121813031,559.9979446599697
1533058200.826,1320.6960845245494,616.0060074703283,773.8946673270597,1360.5974761782124,876.1297947229144
1533058200.83,1298.8440024860163,664.0111567306099,706.184579824996,1322.8740664434713,864.0875574852914
1533058200.8339999,1230.8663766314482,744.0142774944168,702.9552583787355,1265.0270409477207,463.6538807388947
1533058200.8379998,1196.8775637041642,848.003588878378,702.9552583787355,1244.9085758434198,888.1720319605374
1533058200.842,1230.8663766314482,888.0133412652747,667.4855539045733,1222.2765902652586,1189.2464609613853
1533058200.846,1298.8440024860163,872.0061635085187,648.136040944362,1247.4220963172802,912.2565064357834
1533058200.85,1252.7184586699816,792.0030427447118,638.4678883935943,1257.4864795261394,930.3229453022634
1533058200.8539999,1126.4735860783096,688.0137313607505,619.118375433383,1194.612413082668,975.4828764483724
1533058200.8579998,1068.2063393412059,632.0131852270844,541.7269275218756,1199.6394540303886,659.3510263854276
1533058200.8620002,1099.7688004972033,728.0070997376608,554.6244015189038,1202.1529745042492,559.9979446599697
1533058200.8660002,1211.4456183965196,808.0102205014678,654.5880799075451,1214.7308781869688,647.3087891478046
1533058200.869,1218.7296457426976,824.0010142482373,644.9133234274394,1257.4864795261394,867.0965752896744
1533058200.873,1136.183965195774,800.0148236280829,644.9133234274394,1254.9678083955703,987.5251136859954
1533058200.877,1107.0528278433812,696.0091282341353,641.6906059105169,1202.1529745042492,957.4164375818924
1533058200.881,1143.4679925419516,728.0070997376608,648.136040944362,1244.9085758434198,1017.6337897900984
1533058200.885,1221.155997513984,824.0010142482373,744.8770018160807,1302.7556013391707,861.0723736608176
1533058200.889,1238.150403977626,776.0122489979423,715.8527323757637,1302.7556013391707,888.1720319605374
1533058200.893,1182.314481044127,760.0050712411863,673.9375928677564,1322.8740664434713,918.2807080646404
1533058200.897,1160.4623990055936,840.0081920049932,654.5880799075451,1305.269121813031,668.3842458186676
1533058200.901,1206.5879428216285,904.0041350120442,596.5461449562491,1275.0862734998711,575.0553657220667
1533058200.905,1284.2759477936609,968.0000780190952,686.8350668647846,1330.4197785217614,773.7615291729826
1533058200.909,1296.41765071473,1008.0098304059919,767.4492322932145,1368.1431882565028,1095.9114148446934
1533058200.9120002,1252.7184586699816,1056.0149796662733,719.0820538220242,1330.4197785217614,1068.8179225650645
1533058200.9160001,1209.0192666252333,1064.0103765396582,702.9552583787355,1307.7826422868914,1107.9536520823165
1533058200.92,1218.7296457426976,1032.0124050361326,696.5098233448904,1295.2098892608806,963.4406392107494
1533058200.924,1298.8440024860163,1040.0078019095174,712.6300148588412,1282.631985578161,764.7283097397426
1533058200.928,1267.2815413300189,1032.0124050361326,699.7325408618129,1229.81715168684,758.7102741309766
1533058200.9320002,1192.0248601615913,1048.003198782902,670.7082714214959,1197.1259335565283,942.3651825398864
1533058200.936,1177.4568054692356,1056.0149796662733,635.2385669473338,1192.0937419520988,861.0723736608176
1533058200.94,1196.8775637041642,1040.0078019095174,612.6663364701999,1204.6716456348183,716.5593607892506
1533058200.944,1218.7296457426976,1024.0006241527615,664.2628363876507,1207.1851661086787,1119.9958893199394
1533058200.948,1167.7464263517716,1040.0078019095174,683.612349347862,1189.5802214782384,1225.3731726742542
1533058200.951,1136.183965195774,1048.003198782902,606.2209014363548,1209.698686582539,972.4738586439894
1533058200.955,1109.4791796146676,984.0072557758511,583.6486709592209,1202.1529745042492,761.7192919353596
1533058200.9589999,1121.6208825357367,976.0118589024664,593.3234274393266,1184.5480298738087,460.6448629345117
1533058200.9629998,1187.1671845867,976.0118589024664,644.9133234274394,1199.6394540303886,680.4264830562906
1533058200.967,1206.5879428216285,936.0021065155697,670.7082714214959,1207.1851661086787,680.4264830562906
1533058200.971,1162.8887507768802,1000.0144335326071,657.8107974244676,1189.5802214782384,559.9979446599697
1533058200.975,1107.0528278433812,1088.0129511697987,657.8107974244676,1184.5480298738087,773.7615291729826
1533058200.9789999,1145.8943443132382,1104.0037449165684,609.4436189532773,1166.9430852433684,430.5361868304088
1533058200.9829998,1187.1671845867,1096.0083480431836,644.9133234274394,1189.5802214782384,403.4426945507797
1533058200.9870002,1216.303293971411,1056.0149796662733,760.9971933300315,1229.81715168684,1198.2796803946253
1533058200.9910002,1211.4456183965196,1000.0144335326071,754.5517582961863,1252.45428792171,1514.4053644374792
1533058200.994,1145.8943443132382,1008.0098304059919,696.5098233448904,1262.5135204738601,900.2142691981604
1533058200.998,1136.183965195774,984.0072557758511,619.118375433383,1227.3036312129796,683.4416668807646
1533058201.002,1182.314481044127,904.0041350120442,632.0158494304112,1219.7579191346895,746.6680368933536
1533058201.006,1235.7240522063396,888.0133412652747,748.0997193330032,1265.0270409477207,849.0301364231946
1533058201.01,1230.8663766314482,911.999531885429,767.4492322932145,1262.5135204738601,680.4264830562906
1533058201.014,1201.7352392790556,840.0081920049932,770.6719498101371,1262.5135204738601,593.1156385684557
1533058201.018,1136.183965195774,808.0102205014678,686.8350668647846,1222.2765902652586,626.2333324769417
1533058201.022,1170.172778123058,800.0148236280829,680.3830279016016,1182.0345093999483,900.2142691981604
1533058201.026,1247.8607830950903,792.0030427447118,799.6962192504542,1227.3036312129796,1119.9958893199394
1533058201.03,1238.150403977626,872.0061635085187,809.3643718012219,1270.0592325521502,852.0391542275776
1533058201.034,1218.7296457426976,872.0061635085187,744.8770018160807,1285.1506567087301,623.2243146725586
1533058201.0370002,1199.308887507769,784.007645871327,731.9795278190525,1259.9999999999998,894.1900675693036
1533058201.0410001,1201.7352392790556,752.0096743678015,719.0820538220242,1209.698686582539,1222.3641548698713
1533058201.045,1310.985705407085,760.0050712411863,773.8946673270597,1290.177697656451,927.3077614777894
1533058201.049,1344.969546302051,840.0081920049932,802.9189367673767,1332.9332989956217,818.9214603190916
1533058201.053,1172.6041019266627,840.0081920049932,715.8527323757637,1151.856811743497,782.7947486062226
1533058201.0570002,1111.9055313859542,920.0113127688002,638.4678883935943,1081.4370332217356,581.0734013308327
1533058201.061,1141.0416407706653,1016.0052272793766,680.3830279016016,1116.6469224826164,800.8611874727026
1533058201.065,1216.303293971411,920.0113127688002,731.9795278190525,1134.2518671130567,948.3832181486524
1533058201.069,1155.6096954630207,960.0046811457104,680.3830279016016,1066.3456090651557,818.9214603190916
1533058201.073,1048.7855811062773,1040.0078019095174,641.6906059105169,1021.0764872521245,785.8037664106056
1533058201.076,1073.0640149160972,952.0092842723257,593.3234274393266,1011.017254699974,680.4264830562906
1533058201.08,1048.7855811062773,856.0153697617492,561.0764404820869,973.2938449652329,975.4828764483724
1533058201.0839999,1114.336855189559,864.0107666351339,609.4436189532773,1008.5037342261137,936.3409809110294
1533058201.0879998,1175.0304536979493,840.0081920049932,651.3653623906225,1061.3185681174348,593.1156385684557
1533058201.092,1131.331261653201,808.0102205014678,619.118375433383,1083.950553695596,641.2907535390386
1533058201.096,1087.6320696084526,752.0096743678015,622.3410929503056,1099.041977852176,873.1146108984406
1533058201.1,1087.6320696084526,711.9999219809048,541.7269275218756,1076.404841617306,1110.9688359067902
1533058201.1039999,1138.6152889993787,760.0050712411863,528.8294535248474,1106.587689930466,954.4074197775094
1533058201.1079998,1179.8831572405222,840.0081920049932,644.9133234274394,1184.5480298738087,535.9134701847237
1533058201.1120002,1150.7520198881296,840.0081920049932,648.136040944362,1159.402523821787,575.0553657220667
1533058201.1160002,1080.348042262275,824.0010142482373,628.7931319134887,1151.856811743497,704.5171235516276
1533058201.119,1051.2119328775639,784.007645871327,612.6663364701999,1129.2196755086272,927.3077614777894
1533058201.123,1153.178371659416,720.011702864276,619.118375433383,1141.7975791913468,1047.7424658942014
1533058201.127,1228.4400248601617,760.0050712411863,635.2385669473338,1204.6716456348183,1047.7424658942014
1533058201.131,1187.1671845867,856.0153697617492,557.8537229651644,1189.5802214782384,870.1055930940576
1533058201.135,1145.8943443132382,880.0015603819035,573.9739144791151,1154.3703322173576,888.1720319605374
1533058201.139,1131.331261653201,896.0087381386594,596.5461449562491,1136.765387586917,1330.7504560285693
1533058201.143,1160.4623990055936,928.0067096421849,606.2209014363548,1139.2789080607777,1035.7002286565785
1533058201.147,1192.0248601615913,856.0153697617492,657.8107974244676,1179.520988926088,463.6538807388947
1533058201.151,1194.4512119328776,816.0056173748525,625.5638104672281,1224.790110739119,830.9636975567146
1533058201.155,1165.320074580485,880.0015603819035,606.2209014363548,1219.7579191346895,1044.7272820697274
1533058201.158,1126.4735860783096,904.0041350120442,590.094105993066,1189.5802214782384,722.5773963980166
1533058201.1620002,1194.4512119328776,920.0113127688002,602.9915799900942,1199.6394540303886,758.7102741309766
1533058201.1660001,1272.13921690491,952.0092842723257,632.0158494304112,1202.1529745042492,671.3994296431416
1533058201.17,1201.7352392790556,840.0081920049932,667.4855539045733,1232.335822817409,457.6358451301287
1533058201.174,1133.7576134244875,752.0096743678015,706.184579824996,1262.5135204738601,728.6015980268736
1533058201.178,1111.9055313859542,752.0096743678015,664.2628363876507,1227.3036312129796,858.0633558564346
1533058201.1820002,1155.6096954630207,824.0010142482373,651.3653623906225,1187.0667010043778,584.0824191352157
1533058201.186,1245.434431323804,880.0015603819035,719.0820538220242,1209.698686582539,620.2152968681756
1533058201.19,1226.0136730888753,800.0148236280829,719.0820538220242,1247.4220963172802,849.0301364231946
1533058201.194,1158.0360472343073,736.0024966110456,725.5274888558694,1219.7579191346895,1285.5905248824602
1533058201.198,1109.4791796146676,800.0148236280829,680.3830279016016,1187.0667010043778,1258.4908665827402
1533058201.201,1138.6152889993787,792.0030427447118,690.0577843817073,1197.1259335565283,701.5019397271536
1533058201.205,1233.297700435053,888.0133412652747,796.4668978041936,1207.1851661086787,478.7113018009917
1533058201.2089999,1233.297700435053,992.0026526492359,790.0214627703484,1214.7308781869688,626.2333324769417
1533058201.2129998,1192.0248601615913,928.0067096421849,738.4249628528976,1222.2765902652586,809.8944069059424
1533058201.217,1165.320074580485,911.999531885429,744.8770018160807,1217.2443986608291,888.1720319605374
1533058201.221,1175.0304536979493,896.0087381386594,744.8770018160807,1204.6716456348183,858.0633558564346
1533058201.225,1243.0080795525173,872.0061635085187,780.3467062902428,1214.7308781869688,1053.7605015029674
1533058201.2289999,1204.161591050342,880.0015603819035,825.4911672445106,1202.1529745042492,1005.5915525524754
1533058201.2329998,1189.5935363579865,856.0153697617492,790.0214627703484,1277.6049446304403,674.4084474475246
1533058201.2370002,1216.303293971411,896.0087381386594,719.0820538220242,1315.3283543651814,785.8037664106056
1533058201.2410002,1121.6208825357367,808.0102205014678,661.0401188707282,1106.587689930466,846.0211186188116
1533058201.244,1141.0416407706653,752.0096743678015,706.184579824996,1016.0494463044037,701.5019397271536
1533058201.248,1162.8887507768802,896.0087381386594,735.202245335975,1076.404841617306,827.9546797523316
1533058201.252,1114.336855189559,832.0127951316084,735.202245335975,1086.4640741694564,1183.2222593325284
1533058201.256,1111.9055313859542,664.0111567306099,702.9552583787355,1088.9827453000255,1132.0442925776533
1533058201.26,1014.7967681789934,744.0142774944168,570.7511969621926,1016.0494463044037,635.2665519101816
1533058201.264,1087.6320696084526,872.0061635085187,541.7269275218756,1053.7728560391447,511.8289957094777
1533058201.268,1213.8719701678062,928.0067096421849,570.7511969621926,1139.2789080607777,879.1388125272974
1533058201.272,1121.6208825357367,992.0026526492359,573.9739144791151,1114.1282513520473,1062.7937209362074
1533058201.276,1070.6376631448106,976.0118589024664,599.7688624731717,1114.1282513520473,894.1900675693036
1533058201.28,1102.19515226849,944.0138873989409,503.03450553079097,1086.4640741694564,584.0824191352157
1533058201.283,1150.7520198881296,920.0113127688002,477.2395575367345,1129.2196755086272,490.7535390386147
1533058201.2870002,1218.7296457426976,920.0113127688002,573.9739144791151,1204.6716456348183,900.2142691981604
1533058201.2910001,1228.4400248601617,880.0015603819035,535.2814924880305,1131.7331959824876,1017.6337897900984
1533058201.295,1141.0416407706653,840.0081920049932,515.9319795278192,1106.587689930466,707.5261413560106
1533058201.299,1097.342448725917,808.0102205014678,541.7269275218756,1114.1282513520473,1044.7272820697274
1533058201.303,1170.172778123058,816.0056173748525,564.2991579990095,1116.6469224826164,981.5070780772294
1533058201.3070002,1221.155997513984,888.0133412652747,635.2385669473338,1161.9160442956475,821.9366441435654
1533058201.311,1187.1671845867,896.0087381386594,664.2628363876507,1187.0667010043778,852.0391542275776
1533058201.315,1145.8943443132382,944.0138873989409,625.5638104672281,1189.5802214782384,836.9878991855716
1533058201.319,1124.0472343070232,960.0046811457104,577.1966319960378,1166.9430852433684,752.6860725021196
1533058201.323,1136.183965195774,960.0046811457104,638.4678883935943,1119.1604429564768,731.6106158312566
1533058201.326,1179.8831572405222,904.0041350120442,741.6542842991581,1146.8246201390675,855.0543380520514
1533058201.33,1184.7408328154136,880.0015603819035,731.9795278190525,1184.5480298738087,752.6860725021196
1533058201.3339999,1136.183965195774,928.0067096421849,693.2805018986298,1144.3110996652072,776.7705469773656
1533058201.3379998,1097.342448725917,944.0138873989409,615.8956579164604,1121.6739634303372,493.7625568429977
1533058201.342,1111.9055313859542,968.0000780190952,628.7931319134887,1146.8246201390675,463.6538807388947
1533058201.346,1148.325668116843,928.0067096421849,702.9552583787355,1179.520988926088,906.2323048069265
1533058201.35,1136.183965195774,968.0000780190952,709.4072973419186,1192.0937419520988,1005.5915525524754
1533058201.3539999,1097.342448725917,1024.0006241527615,693.2805018986298,1131.7331959824876,1083.8691776070705
1533058201.3579998,1107.0528278433812,1016.0052272793766,635.2385669473338,1121.6739634303372,1080.8601598026873
1533058201.3620002,1121.6208825357367,1111.999141789953,599.7688624731717,1136.765387586917,861.0723736608176
1533058201.3660002,1162.8887507768802,1144.013497303465,638.4678883935943,1144.3110996652072,894.1900675693036
1533058201.369,1206.5879428216285,1128.0063195467092,696.5098233448904,1179.520988926088,812.9034247103256
1533058201.373,1175.0304536979493,1144.013497303465,686.8350668647846,1169.4617563739375,725.5925802224906
1533058201.377,1138.6152889993787,1128.0063195467092,580.4259534422982,1116.6469224826164,797.8460036482286
1533058201.381,1158.0360472343073,1040.0078019095174,564.2991579990095,1121.6739634303372,593.1156385684557
1533058201.385,1194.4512119328776,976.0118589024664,632.0158494304112,1144.3110996652072,286.0231739588418
1533058201.389,1179.8831572405222,1008.0098304059919,644.9133234274394,1156.883852691218,743.6528530688796
1533058201.393,1141.0416407706653,984.0072557758511,619.118375433383,1156.883852691218,903.2232870025434
1533058201.397,1138.6152889993787,911.999531885429,606.2209014363548,1106.587689930466,701.5019397271536
1533058201.401,1131.331261653201,888.0133412652747,548.1789664850587,1048.7406644347152,626.2333324769417
1533058201.405,1257.5711622125546,1032.0124050361326,538.504210004953,1154.3703322173576,623.2243146725586
1533058201.408,1298.8440024860163,1080.0011702864276,622.3410929503056,1224.790110739119,719.5683785936336
1533058201.4120002,1114.336855189559,888.0133412652747,706.184579824996,1146.8246201390675,370.3188346222028
1533058201.4160001,1053.6432566811686,784.007645871327,693.2805018986298,1121.6739634303372,313.1166662384708
1533058201.42,1104.6264760720946,728.0070997376608,648.136040944362,1129.2196755086272,749.6770546977366
1533058201.424,1172.6041019266627,711.9999219809048,731.9795278190525,1189.5802214782384,960.4316214063664
1533058201.428,1230.8663766314482,704.0045251075201,825.4911672445106,1295.2098892608806,900.2142691981604
1533058201.4320002,1192.0248601615913,664.0111567306099,793.2441802872711,1312.8148338913209,924.2987436734064
1533058201.436,1182.314481044127,648.0039789738538,738.4249628528976,1262.5135204738601,852.0391542275776
1533058201.44,1189.5935363579865,544.0146675898926,719.0820538220242,1259.9999999999998,788.8189502350796
1533058201.444,1218.7296457426976,568.0008582100469,738.4249628528976,1280.1184651043006,1017.6337897900984
1533058201.448,1291.5599751398386,640.0085821004691,773.8946673270597,1292.6912181303114,1204.2977160033913
1533058201.451,1262.428837787446,584.0080359668028,770.6719498101371,1302.7556013391707,803.8702052770856
1533058201.455,1209.0192666252333,576.0126390934181,731.9795278190525,1300.2369302086015,843.0121008144284
1533058201.4589999,1187.1671845867,616.0060074703283,680.3830279016016,1262.5135204738601,909.2474886314004
1533058201.4629998,1257.5711622125546,648.0039789738538,744.8770018160807,1252.45428792171,653.3329907766616
1533058201.467,1327.9801118707271,720.011702864276,828.7138847614332,1292.6912181303114,852.0391542275776
1533058201.471,1276.9968924798013,816.0056173748525,767.4492322932145,1322.8740664434713,1138.0623281864193
1533058201.475,1213.8719701678062,848.003588878378,735.202245335975,1360.5974761782124,981.5070780772294
1533058201.4789999,1192.0248601615913,776.0122489979423,702.9552583787355,1282.631985578161,436.5603884592657
1533058201.4829998,1216.303293971411,776.0122489979423,702.9552583787355,1224.790110739119,493.7625568429977
1533058201.4870002,1262.428837787446,760.0050712411863,748.0997193330032,1252.45428792171,957.4164375818924
1533058201.4910002,1252.7184586699816,632.0131852270844,738.4249628528976,1239.881534895699,815.9124425147086
1533058201.494,1192.0248601615913,544.0146675898926,748.0997193330032,1232.335822817409,1014.6247719857154
1533058201.498,1141.0416407706653,584.0080359668028,725.5274888558694,1257.4864795261394,1062.7937209362074
1533058201.502,1162.8887507768802,616.0060074703283,686.8350668647846,1232.335822817409,752.6860725021196
1533058201.506,1264.8551895587323,720.011702864276,722.3047713389468,1227.3036312129796,897.2052513937774
1533058201.51,1255.144810441268,720.011702864276,738.4249628528976,1252.45428792171,550.9647252267297
1533058201.514,1175.0304536979493,672.0065536039946,757.7744758131089,1262.5135204738601,520.8560491226267
1533058201.518,1172.6041019266627,736.0024966110456,673.9375928677564,1232.335822817409,855.0543380520514
1533058201.522,1189.5935363579865,784.007645871327,628.7931319134887,1197.1259335565283,508.8138118850037
1533058201.526,1267.2815413300189,800.0148236280829,693.2805018986298,1234.8493432912694,412.4697479639288
1533058201.53,1260.0024860161593,800.0148236280829,664.2628363876507,1257.4864795261394,815.9124425147086
1533058201.533,1175.0304536979493,720.011702864276,661.0401188707282,1275.0862734998711,1186.2374431570022
1533058201.5370002,1150.7520198881296,624.0014043437131,661.0401188707282,1254.9678083955703,1104.9446342779333
1533058201.5410001,1160.4623990055936,632.0131852270844,635.2385669473338,1239.881534895699,797.8460036482286
1533058201.545,1267.2815413300189,680.0019504773793,648.136040944362,1317.8418748390418,846.0211186188116
1533058201.549,1323.1224362958362,752.0096743678015,677.160310384679,1373.1702292042235,1092.9023970403105
1533058201.553,1204.161591050342,832.0127951316084,728.7502063727919,1292.6912181303114,734.6196336356396
1533058201.5570002,1104.6264760720946,856.0153697617492,683.612349347862,1182.0345093999483,683.4416668807646
1533058201.561,1128.8999378495962,824.0010142482373,606.2209014363548,1126.7061550347667,794.8369858438456
1533058201.565,1196.8775637041642,848.003588878378,638.4678883935943,1104.0690187998969,599.1398401973127
1533058201.569,1194.4512119328776,872.0061635085187,664.2628363876507,1139.2789080607777,885.1630141561544
1533058201.573,1155.6096954630207,880.0015603819035,596.5461449562491,1164.429564769508,1282.5815070780773
1533058201.576,1104.6264760720946,832.0127951316084,573.9739144791151,1146.8246201390675,1240.4305937363513
1533058201.58,1056.0696084524552,776.0122489979423,577.1966319960378,1116.6469224826164,960.4316214063664
1533058201.5839999,1107.0528278433812,816.0056173748525,622.3410929503056,1154.3703322173576,716.5593607892506
1533058201.5879998,1145.8943443132382,768.000468114571,706.184579824996,1222.2765902652586,791.8279680394626
1533058201.592,1085.2007458048479,736.0024966110456,680.3830279016016,1217.2443986608291,791.8279680394626
1533058201.596,1046.359229334991,711.9999219809048,583.6486709592209,1192.0937419520988,740.6438352644966
1533058201.6,1048.7855811062773,816.0056173748525,525.6067360079248,1182.0345093999483,454.6206613056548
1533058201.6039999,1116.7632069608453,952.0092842723257,577.1966319960378,1166.9430852433684,472.6871001721347
1533058201.6079998,1143.4679925419516,928.0067096421849,635.2385669473338,1166.9430852433684,773.7615291729826
1533058201.6120002,1109.4791796146676,888.0133412652747,635.2385669473338,1161.9160442956475,1065.8027387405905
1533058201.615,1107.0528278433812,848.003588878378,612.6663364701999,1184.5480298738087,1080.8601598026873
1533058201.619,1063.353635798633,840.0081920049932,522.3774145616643,1166.9430852433684,827.9546797523316
1533058201.623,1107.0528278433812,896.0087381386594,499.81178801386835,1116.6469224826164,1026.6670092233385
1533058201.627,1206.5879428216285,944.0138873989409,596.5461449562491,1156.883852691218,839.9969169899546
1533058201.631,1182.314481044127,944.0138873989409,602.9915799900942,1197.1259335565283,689.4597024895306
1533058201.635,1121.6208825357367,968.0000780190952,580.4259534422982,1192.0937419520988,987.5251136859954
1533058201.639,1126.4735860783096,1000.0144335326071,538.504210004953,1169.4617563739375,1074.8359581738305
1533058201.643,1162.8887507768802,1032.0124050361326,532.05217104177,1156.883852691218,650.3239729722786
1533058201.647,1194.4512119328776,1048.003198782902,580.4259534422982,1199.6394540303886,683.4416668807646
1533058201.651,1170.172778123058,992.0026526492359,593.3234274393266,1234.8493432912694,824.9456619479486
1533058201.655,1111.9055313859542,968.0000780190952,593.3234274393266,1239.881534895699,707.5261413560106
1533058201.658,1119.189558732132,920.0113127688002,535.2814924880305,1192.0937419520988,578.0643835264497
1533058201.6620002,1172.6041019266627,896.0087381386594,506.2572230477135,1129.2196755086272,313.1166662384708
1533058201.6660001,1216.303293971411,920.0113127688002,622.3410929503056,1189.5802214782384,656.3420085810446
1533058201.67,1192.0248601615913,920.0113127688002,683.612349347862,1229.81715168684,909.2474886314004
1533058201.674,1141.0416407706653,968.0000780190952,654.5880799075451,1192.0937419520988,764.7283097397426
1533058201.678,1133.7576134244875,960.0046811457104,615.8956579164604,1164.429564769508,743.6528530688796
1533058201.6820002,1145.8943443132382,840.0081920049932,593.3234274393266,1144.3110996652072,852.0391542275776
1533058201.686,1216.303293971411,760.0050712411863,615.8956579164604,1146.8246201390675,698.4929219227706
1533058201.69,1223.5823492852705,728.0070997376608,644.9133234274394,1207.1851661086787,791.8279680394626
1533058201.694,1145.8943443132382,776.0122489979423,622.3410929503056,1202.1529745042492,713.5441769647766
1533058201.698,1092.4847731510256,840.0081920049932,586.8713884761435,1146.8246201390675,529.8892685558667
1533058201.701,1114.336855189559,888.0133412652747,580.4259534422982,1116.6469224826164,638.2755697145647
1533058201.705,1199.308887507769,944.0138873989409,651.3653623906225,1154.3703322173576,891.1810497649204
1533058201.7089999,1211.4456183965196,984.0072557758511,696.5098233448904,1244.9085758434198,957.4164375818924
1533058201.7129998,1131.331261653201,1000.0144335326071,683.612349347862,1227.3036312129796,909.2474886314004
1533058201.717,1116.7632069608453,960.0046811457104,602.9915799900942,1171.9752768477979,1110.9688359067902
1533058201.721,1131.331261653201,1000.0144335326071,561.0764404820869,1151.856811743497,1258.4908665827402
1533058201.725,1196.8775637041642,1016.0052272793766,619.118375433383,1164.429564769508,1147.0955476196593
1533058201.7289999,1252.7184586699816,952.0092842723257,680.3830279016016,1224.790110739119,1162.1468026616653
1533058201.7329998,1192.0248601615913,911.999531885429,702.9552583787355,1227.3036312129796,1113.9778537111733
1533058201.7370002,1133.7576134244875,920.0113127688002,657.8107974244676,1204.6716456348183,948.3832181486524
1533058201.74,1124.0472343070232,992.0026526492359,612.6663364701999,1159.402523821787,1141.0713459908025
1533058201.744,1194.4512119328776,1032.0124050361326,641.6906059105169,1169.4617563739375,1107.9536520823165
1533058201.748,1238.150403977626,944.0138873989409,741.6542842991581,1204.6716456348183,698.4929219227706
1533058201.752,1172.6041019266627,872.0061635085187,728.7502063727919,1171.9752768477979,587.0976029596897
1533058201.756,1143.4679925419516,920.0113127688002,651.3653623906225,1156.883852691218,424.5181512216427
1533058201.76,1145.8943443132382,872.0061635085187,657.8107974244676,1166.9430852433684,921.2897258690234
1533058201.764,1206.5879428216285,872.0061635085187,667.4855539045733,1227.3036312129796,1135.0533103820362
1533058201.768,1216.303293971411,1000.0144335326071,651.3653623906225,1159.402523821787,626.2333324769417
1533058201.772,1131.331261653201,984.0072557758511,644.9133234274394,1053.7728560391447,605.1578758060787
1533058201.776,1090.0584213797392,904.0041350120442,628.7931319134887,1031.135719804275,520.8560491226267
1533058201.78,1034.2175264139219,944.0138873989409,606.2209014363548,985.8665979912437,755.6950903065026
1533058201.783,1090.0584213797392,976.0118589024664,609.4436189532773,993.4123100695336,924.2987436734064
1533058201.7870002,1148.325668116843,880.0015603819035,638.4678883935943,1000.9580221478236,912.2565064357834
1533058201.7910001,1099.7688004972033,864.0107666351339,644.9133234274394,1018.562966778264,662.3662102099016
1533058201.795,1075.4903666873836,904.0041350120442,609.4436189532773,1028.6221993304143,843.0121008144284
1533058201.799,1063.353635798633,880.0015603819035,570.7511969621926,1076.404841617306,1086.8781954114534
1533058201.803,1126.4735860783096,920.0113127688002,606.2209014363548,1151.856811743497,674.4084474475246
1533058201.8070002,1204.161591050342,936.0021065155697,696.5098233448904,1166.9430852433684,758.7102741309766
1533058201.811,1175.0304536979493,920.0113127688002,706.184579824996,1166.9430852433684,794.8369858438456
1533058201.815,1150.7520198881296,944.0138873989409,654.5880799075451,1179.520988926088,743.6528530688796
1533058201.819,1119.189558732132,864.0107666351339,638.4678883935943,1164.429564769508,830.9636975567146
1533058201.823,1141.0416407706653,824.0010142482373,702.9552583787355,1166.9430852433684,1144.0865298152762
1533058201.826,1218.7296457426976,896.0087381386594,812.5936932474824,1227.3036312129796,1369.8923515659121
1533058201.83,1204.161591050342,920.0113127688002,806.1416542842993,1237.3628637651298,1005.5915525524754
1533058201.8339999,1138.6152889993787,1008.0098304059919,802.9189367673767,1189.5802214782384,1023.6518253988644
1533058201.8379998,1090.0584213797392,1040.0078019095174,731.9795278190525,1124.1926345609063,1162.1468026616653
1533058201.842,1102.19515226849,984.0072557758511,657.8107974244676,1081.4370332217356,785.8037664106056
1533058201.846,1160.4623990055936,952.0092842723257,786.7987452534259,1134.2518671130567,761.7192919353596
1533058201.85,1153.178371659416,872.0061635085187,799.6962192504542,1187.0667010043778,836.9878991855716
1533058201.8539999,1116.7632069608453,832.0127951316084,686.8350668647846,1164.429564769508,951.3984019731264
1533058201.8579998,1090.0584213797392,856.0153697617492,602.9915799900942,1129.2196755086272,749.6770546977366
1533058201.8620002,1082.7743940335613,904.0041350120442,609.4436189532773,1141.7975791913468,767.7434935642166
1533058201.865,1167.7464263517716,984.0072557758511,670.7082714214959,1146.8246201390675,1144.0865298152762
1533058201.869,1206.5879428216285,1072.0057734130428,683.612349347862,1146.8246201390675,945.3742003442694
1533058201.873,1148.325668116843,1056.0149796662733,712.6300148588412,1156.883852691218,1210.3219176322482
1533058201.877,1099.7688004972033,1064.0103765396582,661.0401188707282,1131.7331959824876,1354.8349305038153
1533058201.881,1099.7688004972033,1056.0149796662733,599.7688624731717,1109.1012104043264,620.2152968681756
1533058201.885,1148.325668116843,1104.0037449165684,719.0820538220242,1129.2196755086272,310.1076484340878
1533058201.889,1189.5935363579865,1096.0083480431836,751.3224368499258,1169.4617563739375,827.9546797523316
1533058201.893,1121.6208825357367,936.0021065155697,712.6300148588412,1179.520988926088,656.3420085810446
1533058201.897,1056.0696084524552,856.0153697617492,686.8350668647846,1171.9752768477979,656.3420085810446
1533058201.901,1068.2063393412059,896.0087381386594,632.0158494304112,1159.402523821787,963.4406392107494
1533058201.905,1136.183965195774,911.999531885429,651.3653623906225,1169.4617563739375,764.7283097397426
1533058201.908,1160.4623990055936,872.0061635085187,654.5880799075451,1171.9752768477979,520.8560491226267
1533058201.9120002,1090.0584213797392,832.0127951316084,625.5638104672281,1146.8246201390675,430.5361868304088
1533058201.9160001,1097.342448725917,824.0010142482373,606.2209014363548,1136.765387586917,665.3752280142846
1533058201.92,1107.0528278433812,808.0102205014678,580.4259534422982,1114.1282513520473,836.9878991855716
1533058201.924,1145.8943443132382,776.0122489979423,590.094105993066,1119.1604429564768,821.9366441435654
1533058201.928,1209.0192666252333,808.0102205014678,615.8956579164604,1104.0690187998969,806.8792230814686
1533058201.9320002,1184.7408328154136,792.0030427447118,615.8956579164604,1109.1012104043264,903.2232870025434
1533058201.936,1148.325668116843,728.0070997376608,609.4436189532773,1151.856811743497,909.2474886314004
1533058201.94,1143.4679925419516,720.011702864276,551.4016840019813,1134.2518671130567,984.5160958816124
1533058201.944,1187.1671845867,776.0122489979423,548.1789664850587,1121.6739634303372,1014.6247719857154
1533058201.947,1257.5711622125546,832.0127951316084,635.2385669473338,1171.9752768477979,785.8037664106056
1533058201.951,1226.0136730888753,800.0148236280829,654.5880799075451,1187.0667010043778,716.5593607892506
1533058201.955,1165.320074580485,800.0148236280829,606.2209014363548,1131.7331959824876,692.4748863140046
1533058201.9589999,1111.9055313859542,848.003588878378,557.8537229651644,1083.950553695596,1023.6518253988644
1533058201.9629998,1128.8999378495962,808.0102205014678,564.2991579990095,1114.1282513520473,1005.5915525524754
1533058201.967,1218.7296457426976,768.000468114571,577.1966319960378,1156.883852691218,532.9044523803407
1533058201.971,1194.4512119328776,800.0148236280829,561.0764404820869,1171.9752768477979,559.9979446599697
1533058201.975,1114.336855189559,792.0030427447118,528.8294535248474,1139.2789080607777,785.8037664106056
1533058201.9789999,1077.9216904909883,744.0142774944168,464.3354796103683,1086.4640741694564,779.7857308018396
1533058201.9829998,1126.4735860783096,784.007645871327,509.4799405646361,1116.6469224826164,827.9546797523316
1533058201.9870002,1204.161591050342,816.0056173748525,628.7931319134887,1164.429564769508,1324.7324204198032
1533058201.99,1209.0192666252333,768.000468114571,654.5880799075451,1179.520988926088,1306.6659815533233
1533058201.994,1153.178371659416,711.9999219809048,625.5638104672281,1171.9752768477979,818.9214603190916
1533058201.998,1116.7632069608453,744.0142774944168,586.8713884761435,1159.402523821787,984.5160958816124
1533058202.002,1172.6041019266627,808.0102205014678,583.6486709592209,1121.6739634303372,1098.9204326490765
1533058202.006,1245.434431323804,856.0153697617492,670.7082714214959,1136.765387586917,806.8792230814686
1533058202.01,1221.155997513984,920.0113127688002,719.0820538220242,1199.6394540303886,975.4828764483724
1533058202.014,1179.8831572405222,968.0000780190952,706.184579824996,1222.2765902652586,821.9366441435654
1533058202.018,1162.8887507768802,1008.0098304059919,619.118375433383,1232.335822817409,776.7705469773656
1533058202.022,1158.0360472343073,1016.0052272793766,593.3234274393266,1199.6394540303886,1053.7605015029674
1533058202.026,1233.297700435053,1032.0124050361326,661.0401188707282,1227.3036312129796,939.3561647355034
1533058202.03,1257.5711622125546,1024.0006241527615,699.7325408618129,1300.2369302086015,846.0211186188116
1533058202.033,1189.5935363579865,992.0026526492359,677.160310384679,1254.9678083955703,839.9969169899546
1533058202.0370002,1143.4679925419516,968.0000780190952,577.1966319960378,1169.4617563739375,885.1630141561544
1533058202.0410001,1114.336855189559,936.0021065155697,567.5218755159322,1129.2196755086272,773.7615291729826
1533058202.045,1165.320074580485,992.0026526492359,680.3830279016016,1131.7331959824876,722.5773963980166
1533058202.049,1206.5879428216285,1016.0052272793766,722.3047713389468,1194.612413082668,731.6106158312566
1533058202.053,1179.8831572405222,960.0046811457104,699.7325408618129,1207.1851661086787,343.2253423425738
1533058202.0570002,1155.6096954630207,911.999531885429,664.2628363876507,1159.402523821787,785.8037664106056
1533058202.061,1141.0416407706653,920.0113127688002,654.5880799075451,1146.8246201390675,1336.7746576574261
1533058202.065,1179.8831572405222,904.0041350120442,686.8350668647846,1169.4617563739375,1309.6749993577062
1533058202.069,1218.7296457426976,824.0010142482373,657.8107974244676,1199.6394540303886,1129.0291087531793
1533058202.072,1179.8831572405222,800.0148236280829,638.4678883935943,1192.0937419520988,653.3329907766616
1533058202.076,1131.331261653201,792.0030427447118,638.4678883935943,1192.0937419520988,665.3752280142846
1533058202.08,1102.19515226849,752.0096743678015,573.9739144791151,1166.9430852433684,641.2907535390386
1533058202.0839999,1170.172778123058,824.0010142482373,593.3234274393266,1192.0937419520988,776.7705469773656
1533058202.0879998,1238.150403977626,920.0113127688002,651.3653623906225,1237.3628637651298,785.8037664106056
1533058202.092,1211.4456183965196,1000.0144335326071,628.7931319134887,1244.9085758434198,746.6680368933536
1533058202.096,1126.4735860783096,911.999531885429,590.094105993066,1242.3950553695595,987.5251136859954
1533058202.1,1014.7967681789934,760.0050712411863,590.094105993066,1151.856811743497,879.1388125272974
1533058202.1039999,1060.9272840273463,728.0070997376608,654.5880799075451,1121.6739634303372,981.5070780772294
1533058202.1079998,1143.4679925419516,616.0060074703283,661.0401188707282,1154.3703322173576,1062.7937209362074
1533058202.1120002,1092.4847731510256,528.0074898331367,612.6663364701999,1164.429564769508,830.9636975567146
1533058202.115,1031.7911746426353,488.0141214562264,615.8956579164604,1179.520988926088,957.4164375818924
1533058202.119,1039.0752019888132,528.0074898331367,580.4259534422982,1146.8246201390675,1168.1710042905222
1533058202.123,1092.4847731510256,584.0080359668028,596.5461449562491,1094.0097862477464,891.1810497649204
1533058202.127,1160.4623990055936,576.0126390934181,693.2805018986298,1156.883852691218,400.42751072630585
1533058202.131,1158.0360472343073,592.0034328401877,651.3653623906225,1199.6394540303886,674.4084474475246
1533058202.135,1109.4791796146676,592.0034328401877,625.5638104672281,1161.9160442956475,942.3651825398864
1533058202.139,1070.6376631448106,584.0080359668028,654.5880799075451,1116.6469224826164,1002.5825347480924
1533058202.143,1075.4903666873836,552.0100644632773,661.0401188707282,1114.1282513520473,1110.9688359067902
1533058202.147,1141.0416407706653,608.0106105969436,673.9375928677564,1169.4617563739375,818.9214603190916
1533058202.151,1184.7408328154136,704.0045251075201,693.2805018986298,1169.4617563739375,981.5070780772294
1533058202.155,1167.7464263517716,808.0102205014678,686.8350668647846,1154.3703322173576,1041.7182642653445
1533058202.158,1116.7632069608453,800.0148236280829,661.0401188707282,1156.883852691218,641.2907535390386
1533058202.1620002,1158.0360472343073,688.0137313607505,664.2628363876507,1144.3110996652072,885.1630141561544
1533058202.1660001,1252.7184586699816,711.9999219809048,699.7325408618129,1164.429564769508,1219.3551370654882
1533058202.17,1252.7184586699816,704.0045251075201,667.4855539045733,1179.520988926088,815.9124425147086
1533058202.174,1201.7352392790556,648.0039789738538,648.136040944362,1192.0937419520988,773.7615291729826
1533058202.178,1167.7464263517716,704.0045251075201,609.4436189532773,1192.0937419520988,1068.8179225650645
1533058202.1820002,1153.178371659416,752.0096743678015,557.8537229651644,1119.1604429564768,921.2897258690234
1533058202.186,1177.4568054692356,704.0045251075201,612.6663364701999,1109.1012104043264,517.8470313182437
1533058202.19,1228.4400248601617,784.007645871327,667.4855539045733,1174.4887973216582,463.6538807388947
1533058202.194,1187.1671845867,840.0081920049932,635.2385669473338,1149.3381406129279,776.7705469773656
1533058202.197,1111.9055313859542,768.000468114571,570.7511969621926,1094.0097862477464,553.9799090512037
1533058202.201,1107.0528278433812,760.0050712411863,573.9739144791151,1119.1604429564768,611.1820774349356
1533058202.205,1172.6041019266627,816.0056173748525,615.8956579164604,1136.765387586917,999.5673509236184
1533058202.2089999,1221.155997513984,888.0133412652747,635.2385669473338,1146.8246201390675,924.2987436734064
1533058202.2129998,1175.0304536979493,896.0087381386594,644.9133234274394,1134.2518671130567,599.1398401973127
1533058202.217,1097.342448725917,864.0107666351339,638.4678883935943,1124.1926345609063,556.9889268555867
1533058202.221,1097.342448725917,904.0041350120442,590.094105993066,1144.3110996652072,737.6348174601136
1533058202.225,1175.0304536979493,1048.003198782902,638.4678883935943,1161.9160442956475,475.6961179765177
1533058202.2289999,1243.0080795525173,1024.0006241527615,677.160310384679,1189.5802214782384,550.9647252267297
1533058202.2329998,1192.0248601615913,864.0107666351339,667.4855539045733,1204.6716456348183,617.2062790637926
1533058202.2370002,1133.7576134244875,832.0127951316084,641.6906059105169,1179.520988926088,803.8702052770856
1533058202.24,1107.0528278433812,832.0127951316084,599.7688624731717,1134.2518671130567,846.0211186188116
1533058202.244,1138.6152889993787,848.003588878378,628.7931319134887,1111.6147308781867,514.8380135138607
1533058202.248,1199.308887507769,840.0081920049932,683.612349347862,1129.2196755086272,740.6438352644966
1533058202.252,1170.172778123058,711.9999219809048,641.6906059105169,1146.8246201390675,906.2323048069265
1533058202.256,1124.0472343070232,736.0024966110456,596.5461449562491,1146.8246201390675,1153.1197492485162
1533058202.26,1114.336855189559,832.0127951316084,577.1966319960378,1106.587689930466,1162.1468026616653
1533058202.264,1165.320074580485,808.0102205014678,586.8713884761435,1101.5554983260363,978.4918942527554
1533058202.268,1238.150403977626,792.0030427447118,635.2385669473338,1189.5802214782384,806.8792230814686
1533058202.272,1187.1671845867,800.0148236280829,635.2385669473338,1207.1851661086787,761.7192919353596
1533058202.276,1107.0528278433812,816.0056173748525,599.7688624731717,1184.5480298738087,629.2485163014156
1533058202.279,1080.348042262275,776.0122489979423,561.0764404820869,1154.3703322173576,743.6528530688796
1533058202.283,1070.6376631448106,752.0096743678015,602.9915799900942,1134.2518671130567,746.6680368933536
1533058202.2870002,1141.0416407706653,824.0010142482373,667.4855539045733,1174.4887973216582,818.9214603190916
1533058202.2910001,1143.4679925419516,792.0030427447118,628.7931319134887,1166.9430852433684,852.0391542275776
1533058202.295,1065.7799875699193,680.0019504773793,599.7688624731717,1161.9160442956475,692.4748863140046
1533058202.299,1060.9272840273463,624.0014043437131,538.504210004953,1166.9430852433684,843.0121008144284
1533058202.303,1075.4903666873836,616.0060074703283,567.5218755159322,1106.587689930466,843.0121008144284
1533058202.3070002,1141.0416407706653,655.9993758472386,615.8956579164604,1126.7061550347667,632.2575341057986
1533058202.311,1141.0416407706653,664.0111567306099,641.6906059105169,1187.0667010043778,484.7293374097577
1533058202.315,1065.7799875699193,680.0019504773793,654.5880799075451,1179.520988926088,484.7293374097577
1533058202.319,1041.5015537600996,784.007645871327,606.2209014363548,1171.9752768477979,641.2907535390386
1533058202.322,1077.9216904909883,840.0081920049932,622.3410929503056,1151.856811743497,809.8944069059424
1533058202.326,1145.8943443132382,808.0102205014678,677.160310384679,1126.7061550347667,987.5251136859954
1533058202.33,1131.331261653201,800.0148236280829,719.0820538220242,1166.9430852433684,547.9557074223467
1533058202.3339999,1099.7688004972033,824.0010142482373,731.9795278190525,1179.520988926088,623.2243146725586
1533058202.3379998,1111.9055313859542,752.0096743678015,702.9552583787355,1149.3381406129279,1080.8601598026873
1533058202.342,1102.19515226849,680.0019504773793,693.2805018986298,1149.3381406129279,876.1297947229144
1533058202.346,1136.183965195774,711.9999219809048,702.9552583787355,1146.8246201390675,1044.7272820697274
1533058202.35,1182.314481044127,752.0096743678015,702.9552583787355,1154.3703322173576,773.7615291729826
1533058202.3539999,1150.7520198881296,808.0102205014678,722.3047713389468,1182.0345093999483,824.9456619479486
1533058202.3579998,1133.7576134244875,856.0153697617492,683.612349347862,1187.0667010043778,906.2323048069265
1533058202.3620002,1143.4679925419516,856.0153697617492,673.9375928677564,1177.0074684522274,939.3561647355034
1533058202.365,1201.7352392790556,904.0041350120442,706.184579824996,1202.1529745042492,1150.1045654240424
1533058202.369,1250.2871348663768,928.0067096421849,677.160310384679,1234.8493432912694,966.4496570151324
1533058202.373,1196.8775637041642,911.999531885429,715.8527323757637,1217.2443986608291,677.4174652519076
1533058202.377,1150.7520198881296,904.0041350120442,735.202245335975,1224.790110739119,891.1810497649204
1533058202.381,1148.325668116843,856.0153697617492,715.8527323757637,1197.1259335565283,1159.1377848572822
1533058202.385,1243.0080795525173,832.0127951316084,751.3224368499258,1229.81715168684,1183.2222593325284
1533058202.389,1286.7072715972656,848.003588878378,741.6542842991581,1234.8493432912694,876.1297947229144
1533058202.393,1165.320074580485,920.0113127688002,683.612349347862,1164.429564769508,686.4506846851476
1533058202.397,1077.9216904909883,920.0113127688002,657.8107974244676,1131.7331959824876,620.2152968681756
1533058202.401,1046.359229334991,888.0133412652747,654.5880799075451,1101.5554983260363,569.0311640932097
1533058202.404,1085.2007458048479,1016.0052272793766,683.612349347862,1094.0097862477464,833.9788813811884
1533058202.408,1165.320074580485,1104.0037449165684,735.202245335975,1078.923512747875,996.5583331192354
1533058202.4120002,1145.8943443132382,1040.0078019095174,706.184579824996,1129.2196755086272,737.6348174601136
1533058202.4160001,1097.342448725917,1008.0098304059919,651.3653623906225,1136.765387586917,734.6196336356396
1533058202.42,1080.348042262275,1032.0124050361326,625.5638104672281,1083.950553695596,939.3561647355034
1533058202.424,1126.4735860783096,1111.999141789953,654.5880799075451,1083.950553695596,617.2062790637926
1533058202.428,1194.4512119328776,1167.9996879236194,696.5098233448904,1136.765387586917,683.4416668807646
1533058202.4320002,1160.4623990055936,1111.999141789953,722.3047713389468,1159.402523821787,758.7102741309766
1533058202.436,1119.189558732132,1024.0006241527615,709.4072973419186,1129.2196755086272,629.2485163014156
1533058202.44,1085.2007458048479,968.0000780190952,648.136040944362,1106.587689930466,894.1900675693036
1533058202.444,1107.0528278433812,1008.0098304059919,657.8107974244676,1116.6469224826164,1014.6247719857154
1533058202.447,1177.4568054692356,1088.0129511697987,706.184579824996,1154.3703322173576,1086.8781954114534
1533058202.451,1148.325668116843,1064.0103765396582,702.9552583787355,1217.2443986608291,846.0211186188116
1533058202.455,1114.336855189559,1048.003198782902,706.184579824996,1209.698686582539,987.5251136859954
1533058202.4589999,1104.6264760720946,1032.0124050361326,651.3653623906225,1141.7975791913468,1020.6428075944814
1533058202.4629998,1124.0472343070232,1016.0052272793766,677.160310384679,1169.4617563739375,671.3994296431416
1533058202.467,1170.172778123058,1032.0124050361326,731.9795278190525,1194.612413082668,722.5773963980166
1533058202.471,1155.6096954630207,1072.0057734130428,706.184579824996,1174.4887973216582,843.0121008144284
1533058202.475,1085.2007458048479,1048.003198782902,693.2805018986298,1136.765387586917,596.1308223929296
1533058202.4789999,1060.9272840273463,992.0026526492359,651.3653623906225,1116.6469224826164,668.3842458186676
1533058202.4829998,1094.9111249223122,984.0072557758511,602.9915799900942,1106.587689930466,833.9788813811884
1533058202.4870002,1158.0360472343073,960.0046811457104,596.5461449562491,1114.1282513520473,692.4748863140046
1533058202.49,1155.6096954630207,976.0118589024664,667.4855539045733,1134.2518671130567,581.0734013308327
1533058202.494,1121.6208825357367,944.0138873989409,738.4249628528976,1124.1926345609063,686.4506846851476
1533058202.498,1085.2007458048479,848.003588878378,686.8350668647846,1101.5554983260363,623.2243146725586
1533058202.502,1065.7799875699193,856.0153697617492,648.136040944362,1091.496265773886,809.8944069059424
1533058202.506,1133.7576134244875,896.0087381386594,657.8107974244676,1101.5554983260363,1059.7847031318245
1533058202.51,1155.6096954630207,848.003588878378,638.4678883935943,1091.496265773886,858.0633558564346
1533058202.514,1092.4847731510256,800.0148236280829,638.4678883935943,1106.587689930466,782.7947486062226
1533058202.518,1039.0752019888132,784.007645871327,586.8713884761435,1116.6469224826164,987.5251136859954
1533058202.522,1026.9384711000623,768.000468114571,551.4016840019813,1053.7728560391447,1141.0713459908025
1533058202.526,1109.4791796146676,752.0096743678015,635.2385669473338,1088.9827453000255,1023.6518253988644
1533058202.529,1170.172778123058,720.011702864276,696.5098233448904,1119.1604429564768,1177.2042237237622
1533058202.533,1133.7576134244875,664.0111567306099,693.2805018986298,1096.5284573783156,683.4416668807646
1533058202.5370002,1099.7688004972033,752.0096743678015,644.9133234274394,1101.5554983260363,575.0553657220667
1533058202.5410001,1109.4791796146676,864.0107666351339,606.2209014363548,1073.8913211434456,1222.3641548698713
1533058202.545,1199.308887507769,928.0067096421849,638.4678883935943,1101.5554983260363,1180.2132415281453
1533058202.549,1240.5767557489125,960.0046811457104,696.5098233448904,1182.0345093999483,1421.076484340878
1533058202.553,1192.0248601615913,888.0133412652747,667.4855539045733,1184.5480298738087,1144.0865298152762
1533058202.5570002,1155.6096954630207,856.0153697617492,612.6663364701999,1177.0074684522274,671.3994296431416
1533058202.561,1145.8943443132382,872.0061635085187,577.1966319960378,1171.9752768477979,791.8279680394626
1533058202.565,1160.4623990055936,816.0056173748525,599.7688624731717,1189.5802214782384,665.3752280142846
1533058202.569,1199.308887507769,776.0122489979423,680.3830279016016,1212.2122070563996,806.8792230814686
1533058202.572,1167.7464263517716,816.0056173748525,677.160310384679,1187.0667010043778,963.4406392107494
1533058202.576,1107.0528278433812,856.0153697617492,580.4259534422982,1159.402523821787,939.3561647355034
1533058202.58,1109.4791796146676,816.0056173748525,541.7269275218756,1141.7975791913468,1165.1619864861393
1533058202.5839999,1175.0304536979493,800.0148236280829,612.6663364701999,1169.4617563739375,800.8611874727026
1533058202.5879998,1245.434431323804,800.0148236280829,654.5880799075451,1189.5802214782384,496.7715746473807
1533058202.592,1233.297700435053,816.0056173748525,641.6906059105169,1194.612413082668,638.2755697145647
1533058202.596,1167.7464263517716,824.0010142482373,638.4678883935943,1212.2122070563996,734.6196336356396
1533058202.6,1145.8943443132382,768.000468114571,573.9739144791151,1184.5480298738087,972.4738586439894
1533058202.6039999,1184.7408328154136,784.007645871327,606.2209014363548,1134.2518671130567,782.7947486062226
1533058202.6079998,1238.150403977626,832.0127951316084,722.3047713389468,1146.8246201390675,520.8560491226267
1533058202.611,1194.4512119328776,840.0081920049932,719.0820538220242,1194.612413082668,846.0211186188116
1533058202.615,1143.4679925419516,840.0081920049932,683.612349347862,1189.5802214782384,1008.6005703568584
1533058202.619,1111.9055313859542,792.0030427447118,648.136040944362,1124.1926345609063,1035.7002286565785
1533058202.623,1104.6264760720946,800.0148236280829,686.8350668647846,1086.4640741694564,1162.1468026616653
1533058202.627,1167.7464263517716,848.003588878378,696.5098233448904,1086.4640741694564,782.7947486062226
1533058202.631,1172.6041019266627,832.0127951316084,715.8527323757637,1119.1604429564768,806.8792230814686
1533058202.635,1109.4791796146676,840.0081920049932,773.8946673270597,1134.2518671130567,927.3077614777894
1533058202.639,1082.7743940335613,792.0030427447118,738.4249628528976,1121.6739634303372,900.2142691981604
1533058202.643,1119.189558732132,800.0148236280829,690.0577843817073,1114.1282513520473,701.5019397271536
1533058202.647,1172.6041019266627,744.0142774944168,715.8527323757637,1141.7975791913468,535.9134701847237
1533058202.651,1167.7464263517716,720.011702864276,728.7502063727919,1187.0667010043778,514.8380135138607
1533058202.654,1143.4679925419516,784.007645871327,686.8350668647846,1179.520988926088,701.5019397271536
1533058202.658,1145.8943443132382,760.0050712411863,638.4678883935943,1151.856811743497,885.1630141561544
1533058202.6620002,1143.4679925419516,816.0056173748525,664.2628363876507,1131.7331959824876,948.3832181486524
1533058202.6660001,1199.308887507769,880.0015603819035,696.5098233448904,1149.3381406129279,836.9878991855716
1533058202.67,1230.8663766314482,776.0122489979423,722.3047713389468,1182.0345093999483,915.2655242401664
1533058202.674,1172.6041019266627,664.0111567306099,680.3830279016016,1159.402523821787,1047.7424658942014
1533058202.678,1111.9055313859542,728.0070997376608,622.3410929503056,1144.3110996652072,975.4828764483724
1533058202.6820002,1119.189558732132,800.0148236280829,677.160310384679,1146.8246201390675,873.1146108984406
1533058202.686,1184.7408328154136,784.007645871327,741.6542842991581,1141.7975791913468,412.4697479639288
1533058202.69,1175.0304536979493,792.0030427447118,722.3047713389468,1164.429564769508,683.4416668807646
1533058202.694,1119.189558732132,760.0050712411863,712.6300148588412,1187.0667010043778,692.4748863140046
1533058202.697,1097.342448725917,800.0148236280829,738.4249628528976,1154.3703322173576,517.8470313182437
1533058202.701,1082.7743940335613,792.0030427447118,667.4855539045733,1114.1282513520473,909.2474886314004
1533058202.705,1158.0360472343073,752.0096743678015,725.5274888558694,1126.7061550347667,758.7102741309766
1533058202.7089999,1226.0136730888753,744.0142774944168,822.2684497275882,1161.9160442956475,966.4496570151324
1533058202.7129998,1199.308887507769,728.0070997376608,777.1239887733202,1202.1529745042492,1123.0110731444133
1533058202.717,1155.6096954630207,800.0148236280829,741.6542842991581,1187.0667010043778,984.5160958816124
1533058202.721,1138.6152889993787,840.0081920049932,712.6300148588412,1139.2789080607777,1083.8691776070705
1533058202.725,1199.308887507769,864.0107666351339,741.6542842991581,1202.1529745042492,1092.9023970403105
1533058202.7289999,1247.8607830950903,848.003588878378,812.5936932474824,1229.81715168684,1062.7937209362074
1533058202.7329998,1235.7240522063396,760.0050712411863,835.1659237246162,1252.45428792171,981.5070780772294
1533058202.736,1194.4512119328776,800.0148236280829,744.8770018160807,1270.0592325521502,1020.6428075944814
1533058202.74,1092.4847731510256,888.0133412652747,670.7082714214959,1104.0690187998969,1098.9204326490765
1533058202.744,1116.7632069608453,888.0133412652747,706.184579824996,1076.404841617306,1083.8691776070705
1533058202.748,1228.4400248601617,864.0107666351339,728.7502063727919,1184.5480298738087,1038.7092464609614
1533058202.752,1230.8663766314482,888.0133412652747,731.9795278190525,1214.7308781869688,1110.9688359067902
1533058202.756,1194.4512119328776,944.0138873989409,693.2805018986298,1219.7579191346895,888.1720319605374
1533058202.76,1158.0360472343073,920.0113127688002,641.6906059105169,1194.612413082668,665.3752280142846
1533058202.764,1155.6096954630207,864.0107666351339,680.3830279016016,1184.5480298738087,608.1730596305526
1533058202.768,1250.2871348663768,880.0015603819035,661.0401188707282,1219.7579191346895,641.2907535390386
1533058202.772,1245.434431323804,872.0061635085187,638.4678883935943,1244.9085758434198,566.0221462888267
1533058202.776,1150.7520198881296,872.0061635085187,673.9375928677564,1222.2765902652586,770.7525113685996
1533058202.779,1131.331261653201,856.0153697617492,564.2991579990095,1166.9430852433684,1123.0110731444133
1533058202.783,1143.4679925419516,888.0133412652747,535.2814924880305,1131.7331959824876,1014.6247719857154
1533058202.7870002,1177.4568054692356,880.0015603819035,661.0401188707282,1169.4617563739375,1147.0955476196593
1533058202.7910001,1187.1671845867,824.0010142482373,686.8350668647846,1222.2765902652586,1132.0442925776533
1533058202.795,1124.0472343070232,808.0102205014678,667.4855539045733,1179.520988926088,839.9969169899546
1533058202.799,1090.0584213797392,848.003588878378,670.7082714214959,1144.3110996652072,638.2755697145647
1533058202.803,1114.336855189559,880.0015603819035,686.8350668647846,1121.6739634303372,888.1720319605374
1533058202.8070002,1172.6041019266627,800.0148236280829,735.202245335975,1169.4617563739375,611.1820774349356
1533058202.811,1192.0248601615913,752.0096743678015,786.7987452534259,1217.2443986608291,445.5874418724148
1533058202.815,1143.4679925419516,808.0102205014678,760.9971933300315,1189.5802214782384,1050.7514836985845
1533058202.819,1073.0640149160972,768.000468114571,654.5880799075451,1144.3110996652072,797.8460036482286
1533058202.822,1036.6488502175266,720.011702864276,612.6663364701999,1096.5284573783156,963.4406392107494
1533058202.826,1126.4735860783096,752.0096743678015,664.2628363876507,1078.923512747875,993.5493153148524
1533058202.83,1179.8831572405222,776.0122489979423,654.5880799075451,1119.1604429564768,797.8460036482286
1533058202.8339999,1107.0528278433812,768.000468114571,609.4436189532773,1159.402523821787,523.8712329471007
1533058202.8379998,1085.2007458048479,752.0096743678015,561.0764404820869,1151.856811743497,231.83002337949284
1533058202.842,1104.6264760720946,752.0096743678015,567.5218755159322,1146.8246201390675,773.7615291729826
1533058202.846,1162.8887507768802,816.0056173748525,580.4259534422982,1141.7975791913468,867.0965752896744
1533058202.85,1189.5935363579865,824.0010142482373,593.3234274393266,1144.3110996652072,695.4839041183876
1533058202.8539999,1153.178371659416,800.0148236280829,635.2385669473338,1166.9430852433684,749.6770546977366
1533058202.8579998,1143.4679925419516,752.0096743678015,651.3653623906225,1161.9160442956475,818.9214603190916
1533058202.861,1128.8999378495962,736.0024966110456,602.9915799900942,1114.1282513520473,839.9969169899546
1533058202.865,1143.4679925419516,784.007645871327,612.6663364701999,1106.587689930466,722.5773963980166
1533058202.869,1196.8775637041642,760.0050712411863,657.8107974244676,1104.0690187998969,475.6961179765177
1533058202.873,1167.7464263517716,744.0142774944168,654.5880799075451,1119.1604429564768,289.03219176322483
1533058202.877,1119.189558732132,760.0050712411863,644.9133234274394,1159.402523821787,644.2997713434216
1533058202.881,1094.9111249223122,728.0070997376608,593.3234274393266,1106.587689930466,710.5351591603936
1533058202.885,1116.7632069608453,664.0111567306099,625.5638104672281,1068.859129539016,532.9044523803407
1533058202.889,1204.161591050342,776.0122489979423,657.8107974244676,1126.7061550347667,728.6015980268736
1533058202.893,1175.0304536979493,848.003588878378,635.2385669473338,1159.402523821787,815.9124425147086
1533058202.897,1107.0528278433812,768.000468114571,606.2209014363548,1146.8246201390675,478.7113018009917
1533058202.901,1085.2007458048479,752.0096743678015,586.8713884761435,1114.1282513520473,779.7857308018396
1533058202.904,1124.0472343070232,832.0127951316084,593.3234274393266,1101.5554983260363,1098.9204326490765
1533058202.908,1196.8775637041642,856.0153697617492,590.094105993066,1121.6739634303372,1038.7092464609614
1533058202.9120002,1182.314481044127,896.0087381386594,670.7082714214959,1146.8246201390675,1141.0713459908025
1533058202.9160001,1160.4623990055936,944.0138873989409,693.2805018986298,1159.402523821787,1412.043264907638
1533058202.92,1121.6208825357367,896.0087381386594,599.7688624731717,1099.041977852176,1384.9436066079181
1533058202.924,1133.7576134244875,928.0067096421849,628.7931319134887,1068.859129539016,1427.094519949644
1533058202.928,1218.7296457426976,976.0118589024664,702.9552583787355,1151.856811743497,960.4316214063664
1533058202.9320002,1187.1671845867,920.0113127688002,767.4492322932145,1171.9752768477979,301.07442900084783
1533058202.936,1124.0472343070232,904.0041350120442,780.3467062902428,1144.3110996652072,653.3329907766616
1533058202.94,1128.8999378495962,928.0067096421849,699.7325408618129,1149.3381406129279,1147.0955476196593
1533058202.9429998,1136.183965195774,904.0041350120442,702.9552583787355,1139.2789080607777,978.4918942527554
1533058202.947,1170.172778123058,848.003588878378,744.8770018160807,1134.2518671130567,662.3662102099016
1533058202.951,1179.8831572405222,824.0010142482373,709.4072973419186,1187.0667010043778,728.6015980268736
1533058202.955,1124.0472343070232,768.000468114571,638.4678883935943,1189.5802214782384,912.2565064357834
1533058202.9589999,1087.6320696084526,752.0096743678015,544.9496450387982,1159.402523821787,1005.5915525524754
1533058202.9629998,1107.0528278433812,800.0148236280829,538.504210004953,1121.6739634303372,1002.5825347480924
1533058202.967,1209.0192666252333,840.0081920049932,602.9915799900942,1154.3703322173576,1062.7937209362074
1533058202.971,1235.7240522063396,872.0061635085187,586.8713884761435,1207.1851661086787,939.3561647355034
1533058202.975,1111.9055313859542,816.0056173748525,606.2209014363548,1144.3110996652072,722.5773963980166
1533058202.9789999,1094.9111249223122,752.0096743678015,593.3234274393266,1136.765387586917,677.4174652519076
1533058202.9829998,1126.4735860783096,728.0070997376608,593.3234274393266,1164.429564769508,713.5441769647766
1533058202.986,1153.178371659416,752.0096743678015,609.4436189532773,1151.856811743497,686.4506846851476
1533058202.99,1148.325668116843,784.007645871327,599.7688624731717,1177.0074684522274,698.4929219227706
1533058202.994,1138.6152889993787,832.0127951316084,596.5461449562491,1197.1259335565283,629.2485163014156
1533058202.998,1133.7576134244875,880.0015603819035,580.4259534422982,1177.0074684522274,644.2997713434216
1533058203.002,1097.342448725917,808.0102205014678,593.3234274393266,1169.4617563739375,1047.7424658942014
1533058203.006,1133.7576134244875,808.0102205014678,641.6906059105169,1177.0074684522274,981.5070780772294
1533058203.01,1187.1671845867,888.0133412652747,693.2805018986298,1182.0345093999483,752.6860725021196
1533058203.014,1138.6152889993787,896.0087381386594,699.7325408618129,1187.0667010043778,692.4748863140046
1533058203.018,1116.7632069608453,808.0102205014678,661.0401188707282,1174.4887973216582,861.0723736608176
1533058203.022,1136.183965195774,744.0142774944168,606.2209014363548,1146.8246201390675,981.5070780772294
1533058203.026,1172.6041019266627,784.007645871327,644.9133234274394,1177.0074684522274,514.8380135138607
1533058203.029,1243.0080795525173,792.0030427447118,744.8770018160807,1214.7308781869688,559.9979446599697
1533058203.033,1206.5879428216285,776.0122489979423,748.0997193330032,1237.3628637651298,653.3329907766616
1533058203.0370002,1116.7632069608453,711.9999219809048,696.5098233448904,1217.2443986608291,782.7947486062226
1533058203.0410001,1065.7799875699193,688.0137313607505,644.9133234274394,1139.2789080607777,797.8460036482286
1533058203.045,1094.9111249223122,744.0142774944168,683.612349347862,1151.856811743497,803.8702052770856
1533058203.049,1160.4623990055936,792.0030427447118,725.5274888558694,1199.6394540303886,779.7857308018396
1533058203.053,1150.7520198881296,792.0030427447118,722.3047713389468,1184.5480298738087,818.9214603190916
1533058203.0570002,1114.336855189559,760.0050712411863,696.5098233448904,1159.402523821787,1008.6005703568584
1533058203.061,1109.4791796146676,744.0142774944168,641.6906059105169,1139.2789080607777,1020.6428075944814
1533058203.065,1153.178371659416,776.0122489979423,696.5098233448904,1141.7975791913468,864.0875574852914
1533058203.0679998,1199.308887507769,840.0081920049932,777.1239887733202,1184.5480298738087,728.6015980268736
1533058203.072,1184.7408328154136,832.0127951316084,699.7325408618129,1171.9752768477979,644.2997713434216
1533058203.076,1141.0416407706653,784.007645871327,664.2628363876507,1174.4887973216582,891.1810497649204
1533058203.08,1107.0528278433812,776.0122489979423,706.184579824996,1177.0074684522274,1427.094519949644
1533058203.0839999,1150.7520198881296,816.0056173748525,693.2805018986298,1161.9160442956475,1216.3399532410142
1533058203.0879998,1223.5823492852705,816.0056173748525,702.9552583787355,1177.0074684522274,833.9788813811884
1533058203.092,1221.155997513984,768.000468114571,699.7325408618129,1174.4887973216582,830.9636975567146
1533058203.096,1187.1671845867,752.0096743678015,664.2628363876507,1171.9752768477979,969.4586748195154
1533058203.1,1167.7464263517716,816.0056173748525,635.2385669473338,1154.3703322173576,1071.8269403694474
1533058203.1039999,1165.320074580485,856.0153697617492,670.7082714214959,1136.765387586917,331.1831051049508
1533058203.1079998,1218.7296457426976,832.0127951316084,722.3047713389468,1144.3110996652072,340.21632453819086
1533058203.111,1223.5823492852705,792.0030427447118,699.7325408618129,1169.4617563739375,689.4597024895306
1533058203.115,1165.320074580485,784.007645871327,686.8350668647846,1189.5802214782384,764.7283097397426
1533058203.119,1133.7576134244875,784.007645871327,648.136040944362,1159.402523821787,1231.3973743031113
1533058203.123,1114.336855189559,752.0096743678015,667.4855539045733,1139.2789080607777,1252.4728309739742
1533058203.127,1184.7408328154136,840.0081920049932,735.202245335975,1214.7308781869688,1119.9958893199394
1533058203.131,1228.4400248601617,848.003588878378,712.6300148588412,1247.4220963172802,1014.6247719857154
1533058203.135,1150.7520198881296,752.0096743678015,654.5880799075451,1209.698686582539,888.1720319605374
1533058203.139,1126.4735860783096,768.000468114571,619.118375433383,1194.612413082668,969.4586748195154
1533058203.143,1109.4791796146676,824.0010142482373,593.3234274393266,1159.402523821787,794.8369858438456
1533058203.147,1158.0360472343073,832.0127951316084,632.0158494304112,1154.3703322173576,876.1297947229144
1533058203.151,1201.7352392790556,864.0107666351339,722.3047713389468,1194.612413082668,785.8037664106056
1533058203.154,1148.325668116843,904.0041350120442,773.8946673270597,1217.2443986608291,608.1730596305526
1533058203.158,1128.8999378495962,800.0148236280829,706.184579824996,1197.1259335565283,596.1308223929296
1533058203.1620002,1092.4847731510256,752.0096743678015,654.5880799075451,1164.429564769508,575.0553657220667
1533058203.1660001,1109.4791796146676,816.0056173748525,738.4249628528976,1199.6394540303886,1032.6850448321045
1533058203.17,1172.6041019266627,832.0127951316084,731.9795278190525,1224.790110739119,1053.7605015029674
1533058203.174,1150.7520198881296,864.0107666351339,648.136040944362,1192.0937419520988,1017.6337897900984
1533058203.178,1094.9111249223122,896.0087381386594,580.4259534422982,1154.3703322173576,933.3319631066464
1533058203.1820002,1085.2007458048479,928.0067096421849,586.8713884761435,1119.1604429564768,535.9134701847237
1533058203.186,1141.0416407706653,928.0067096421849,644.9133234274394,1156.883852691218,668.3842458186676
1533058203.19,1165.320074580485,864.0107666351339,651.3653623906225,1166.9430852433684,879.1388125272974
1533058203.1929998,1077.9216904909883,768.000468114571,648.136040944362,1144.3110996652072,1014.6247719857154
1533058203.197,1022.0807955251711,752.0096743678015,609.4436189532773,1141.7975791913468,782.7947486062226
1533058203.201,1056.0696084524552,816.0056173748525,567.5218755159322,1126.7061550347667,529.8892685558667
1533058203.205,1119.189558732132,872.0061635085187,580.4259534422982,1154.3703322173576,668.3842458186676
1533058203.2089999,1175.0304536979493,864.0107666351339,602.9915799900942,1199.6394540303886,818.9214603190916
1533058203.2129998,1158.0360472343073,848.003588878378,619.118375433383,1184.5480298738087,963.4406392107494
1533058203.217,1121.6208825357367,888.0133412652747,567.5218755159322,1161.9160442956475,942.3651825398864
1533058203.221,1094.9111249223122,904.0041350120442,496.58246656760787,1174.4887973216582,563.0069624643527
1533058203.225,1111.9055313859542,832.0127951316084,544.9496450387982,1179.520988926088,725.5925802224906
1533058203.2289999,1196.8775637041642,752.0096743678015,612.6663364701999,1214.7308781869688,903.2232870025434
1533058203.2329998,1216.303293971411,720.011702864276,599.7688624731717,1232.335822817409,550.9647252267297
1533058203.236,1167.7464263517716,696.0091282341353,570.7511969621926,1204.6716456348183,782.7947486062226
1533058203.24,1145.8943443132382,736.0024966110456,467.5648010566288,1164.429564769508,1038.7092464609614
1533058203.244,1162.8887507768802,720.011702864276,503.03450553079097,1146.8246201390675,782.7947486062226
1533058203.248,1235.7240522063396,672.0065536039946,628.7931319134887,1174.4887973216582,746.6680368933536
1533058203.252,1250.2871348663768,696.0091282341353,625.5638104672281,1194.612413082668,803.8702052770856
1533058203.256,1172.6041019266627,760.0050712411863,570.7511969621926,1171.9752768477979,1029.6760270277214
1533058203.26,1116.7632069608453,760.0050712411863,525.6067360079248,1141.7975791913468,867.0965752896744
1533058203.264,1107.0528278433812,744.0142774944168,538.504210004953,1136.765387586917,680.4264830562906
1533058203.268,1165.320074580485,808.0102205014678,573.9739144791151,1161.9160442956475,653.3329907766616
1533058203.272,1177.4568054692356,952.0092842723257,619.118375433383,1177.0074684522274,69.24440562135499
1533058203.275,1111.9055313859542,904.0041350120442,628.7931319134887,1169.4617563739375,84.30182668345195
1533058203.279,1075.4903666873836,856.0153697617492,628.7931319134887,1159.402523821787,559.9979446599697
1533058203.283,1099.7688004972033,920.0113127688002,641.6906059105169,1169.4617563739375,1017.6337897900984
1533058203.2870002,1160.4623990055936,856.0153697617492,657.8107974244676,1189.5802214782384,1225.3731726742542
1533058203.2910001,1187.1671845867,904.0041350120442,651.3653623906225,1207.1851661086787,1210.3219176322482
1533058203.295,1148.325668116843,920.0113127688002,635.2385669473338,1197.1259335565283,1080.8601598026873
1533058203.299,1109.4791796146676,888.0133412652747,567.5218755159322,1171.9752768477979,662.3662102099016
1533058203.303,1114.336855189559,936.0021065155697,554.6244015189038,1177.0074684522274,797.8460036482286
1533058203.3070002,1177.4568054692356,968.0000780190952,648.136040944362,1214.7308781869688,942.3651825398864
1533058203.311,1216.303293971411,952.0092842723257,706.184579824996,1224.790110739119,1083.8691776070705
1533058203.315,1167.7464263517716,936.0021065155697,712.6300148588412,1217.2443986608291,855.0543380520514
1533058203.3179998,1138.6152889993787,864.0107666351339,690.0577843817073,1222.2765902652586,782.7947486062226
1533058203.322,1107.0528278433812,728.0070997376608,683.612349347862,1182.0345093999483,1147.0955476196593
1533058203.326,1160.4623990055936,728.0070997376608,686.8350668647846,1169.4617563739375,1008.6005703568584
1533058203.33,1218.7296457426976,736.0024966110456,696.5098233448904,1202.1529745042492,1098.9204326490765
1533058203.3339999,1150.7520198881296,752.0096743678015,667.4855539045733,1184.5480298738087,1384.9436066079181
1533058203.3379998,1102.19515226849,736.0024966110456,586.8713884761435,1136.765387586917,978.4918942527554
1533058203.342,1102.19515226849,704.0045251075201,561.0764404820869,1129.2196755086272,532.9044523803407
1533058203.346,1131.331261653201,720.011702864276,622.3410929503056,1144.3110996652072,731.6106158312566
1533058203.35,1196.8775637041642,864.0107666351339,661.0401188707282,1182.0345093999483,1113.9778537111733
1533058203.3539999,1177.4568054692356,944.0138873989409,651.3653623906225,1202.1529745042492,803.8702052770856
1533058203.3579998,1121.6208825357367,872.0061635085187,606.2209014363548,1177.0074684522274,677.4174652519076
1533058203.361,1094.9111249223122,856.0153697617492,557.8537229651644,1131.7331959824876,731.6106158312566
1533058203.365,1143.4679925419516,864.0107666351339,561.0764404820869,1134.2518671130567,587.0976029596897
1533058203.369,1238.150403977626,848.003588878378,612.6663364701999,1207.1851661086787,632.2575341057986
1533058203.373,1226.0136730888753,936.0021065155697,596.5461449562491,1227.3036312129796,529.8892685558667
1533058203.377,1158.0360472343073,904.0041350120442,551.4016840019813,1192.0937419520988,620.2152968681756
1533058203.381,1085.2007458048479,768.000468114571,583.6486709592209,1146.8246201390675,873.1146108984406
1533058203.385,1090.0584213797392,856.0153697617492,638.4678883935943,1129.2196755086272,746.6680368933536
1533058203.389,1199.308887507769,848.003588878378,670.7082714214959,1229.81715168684,800.8611874727026
1533058203.393,1177.4568054692356,736.0024966110456,661.0401188707282,1277.6049446304403,984.5160958816124
1533058203.397,1087.6320696084526,720.011702864276,638.4678883935943,1237.3628637651298,590.1066207640727
1533058203.4,1073.0640149160972,664.0111567306099,632.0158494304112,1224.790110739119,803.8702052770856
1533058203.404,1133.7576134244875,696.0091282341353,612.6663364701999,1249.9407674478493,818.9214603190916
1533058203.408,1245.434431323804,776.0122489979423,673.9375928677564,1270.0592325521502,909.2474886314004
1533058203.4120002,1269.7128651336236,800.0148236280829,670.7082714214959,1262.5135204738601,1083.8691776070705
1533058203.4160001,1216.303293971411,856.0153697617492,644.9133234274394,1252.45428792171,999.5673509236184
1533058203.42,1182.314481044127,848.003588878378,654.5880799075451,1229.81715168684,861.0723736608176
1533058203.424,1172.6041019266627,840.0081920049932,615.8956579164604,1189.5802214782384,252.8993140302649
1533058203.428,1260.0024860161593,840.0081920049932,680.3830279016016,1209.698686582539,668.3842458186676
1533058203.4320002,1276.9968924798013,800.0148236280829,748.0997193330032,1224.790110739119,975.4828764483724
1533058203.436,1189.5935363579865,728.0070997376608,751.3224368499258,1229.81715168684,891.1810497649204
1533058203.44,1177.4568054692356,711.9999219809048,696.5098233448904,1212.2122070563996,695.4839041183876
1533058203.4429998,1162.8887507768802,800.0148236280829,690.0577843817073,1177.0074684522274,680.4264830562906
1533058203.447,1179.8831572405222,760.0050712411863,719.0820538220242,1222.2765902652586,806.8792230814686
1533058203.451,1228.4400248601617,711.9999219809048,719.0820538220242,1232.335822817409,520.8560491226267
1533058203.455,1170.172778123058,760.0050712411863,673.9375928677564,1197.1259335565283,635.2665519101816
1533058203.4589999,1126.4735860783096,752.0096743678015,632.0158494304112,1161.9160442956475,1062.7937209362074
1533058203.4629998,1143.4679925419516,792.0030427447118,622.3410929503056,1187.0667010043778,1032.6850448321045
1533058203.467,1199.308887507769,856.0153697617492,619.118375433383,1199.6394540303886,803.8702052770856
1533058203.471,1257.5711622125546,832.0127951316084,615.8956579164604,1212.2122070563996,927.3077614777894
1533058203.475,1211.4456183965196,824.0010142482373,628.7931319134887,1252.45428792171,1068.8179225650645
1533058203.4789999,1165.320074580485,800.0148236280829,622.3410929503056,1219.7579191346895,876.1297947229144
1533058203.4829998,1170.172778123058,792.0030427447118,590.094105993066,1179.520988926088,876.1297947229144
1533058203.486,1240.5767557489125,848.003588878378,677.160310384679,1192.0937419520988,1077.8511419983045
1533058203.49,1286.7072715972656,832.0127951316084,722.3047713389468,1257.4864795261394,788.8189502350796
1533058203.494,1218.7296457426976,816.0056173748525,667.4855539045733,1259.9999999999998,683.4416668807646
1533058203.498,1158.0360472343073,808.0102205014678,625.5638104672281,1217.2443986608291,1029.6760270277214
1533058203.502,1133.7576134244875,784.007645871327,612.6663364701999,1199.6394540303886,1321.7172365953293
1533058203.506,1189.5935363579865,768.000468114571,612.6663364701999,1187.0667010043778,975.4828764483724
1533058203.51,1250.2871348663768,792.0030427447118,651.3653623906225,1194.612413082668,1032.6850448321045
1533058203.514,1218.7296457426976,784.007645871327,673.9375928677564,1202.1529745042492,1240.4305937363513
1533058203.518,1167.7464263517716,760.0050712411863,628.7931319134887,1189.5802214782384,897.2052513937774
1533058203.522,1153.178371659416,856.0153697617492,538.504210004953,1136.765387586917,761.7192919353596
1533058203.525,1209.0192666252333,960.0046811457104,596.5461449562491,1151.856811743497,707.5261413560106
1533058203.529,1269.7128651336236,1016.0052272793766,709.4072973419186,1177.0074684522274,578.0643835264497
1533058203.533,1199.308887507769,984.0072557758511,683.612349347862,1187.0667010043778,743.6528530688796
1533058203.5370002,1119.189558732132,904.0041350120442,628.7931319134887,1234.8493432912694,1032.6850448321045
1533058203.5410001,1104.6264760720946,911.999531885429,661.0401188707282,1189.5802214782384,791.8279680394626
1533058203.545,1116.7632069608453,976.0118589024664,738.4249628528976,1151.856811743497,704.5171235516276
1533058203.549,1192.0248601615913,984.0072557758511,748.0997193330032,1192.0937419520988,915.2655242401664
1533058203.553,1199.308887507769,936.0021065155697,731.9795278190525,1219.7579191346895,972.4738586439894
1533058203.5570002,1162.8887507768802,872.0061635085187,696.5098233448904,1224.790110739119,984.5160958816124
1533058203.561,1148.325668116843,784.007645871327,693.2805018986298,1199.6394540303886,1351.8259126994321
1533058203.565,1150.7520198881296,792.0030427447118,702.9552583787355,1161.9160442956475,1336.7746576574261
1533058203.5679998,1182.314481044127,808.0102205014678,702.9552583787355,1151.856811743497,1168.1710042905222
1533058203.572,1184.7408328154136,736.0024966110456,657.8107974244676,1199.6394540303886,993.5493153148524
1533058203.576,1162.8887507768802,704.0045251075201,609.4436189532773,1224.790110739119,818.9214603190916
1533058203.58,1126.4735860783096,680.0019504773793,577.1966319960378,1161.9160442956475,972.4738586439894
1533058203.5839999,1133.7576134244875,720.011702864276,567.5218755159322,1166.9430852433684,767.7434935642166
1533058203.5879998,1230.8663766314482,768.000468114571,667.4855539045733,1234.8493432912694,752.6860725021196
1533058203.592,1228.4400248601617,776.0122489979423,696.5098233448904,1217.2443986608291,812.9034247103256
1533058203.596,1182.314481044127,792.0030427447118,661.0401188707282,1229.81715168684,713.5441769647766
1533058203.6,1187.1671845867,760.0050712411863,664.2628363876507,1252.45428792171,683.4416668807646
1533058203.6039999,1136.183965195774,744.0142774944168,664.2628363876507,1136.765387586917,665.3752280142846
1533058203.6079998,1172.6041019266627,752.0096743678015,670.7082714214959,1114.1282513520473,806.8792230814686
1533058203.611,1250.2871348663768,784.007645871327,686.8350668647846,1209.698686582539,797.8460036482286
1533058203.615,1221.155997513984,792.0030427447118,696.5098233448904,1247.4220963172802,668.3842458186676
1533058203.619,1182.314481044127,848.003588878378,654.5880799075451,1239.881534895699,611.1820774349356
1533058203.623,1165.320074580485,936.0021065155697,602.9915799900942,1192.0937419520988,897.2052513937774
1533058203.627,1240.5767557489125,920.0113127688002,612.6663364701999,1237.3628637651298,900.2142691981604
1533058203.631,1291.5599751398386,880.0015603819035,661.0401188707282,1287.6641771825905,596.1308223929296
1533058203.635,1233.297700435053,896.0087381386594,693.2805018986298,1277.6049446304403,906.2323048069265
1533058203.639,1196.8775637041642,896.0087381386594,625.5638104672281,1267.5457120782899,873.1146108984406
1533058203.643,1184.7408328154136,888.0133412652747,628.7931319134887,1217.2443986608291,707.5261413560106
1533058203.647,1228.4400248601617,888.0133412652747,699.7325408618129,1207.1851661086787,824.9456619479486
1533058203.65,1293.9912989434433,896.0087381386594,725.5274888558694,1272.5727530260106,647.3087891478046
1533058203.654,1276.9968924798013,832.0127951316084,738.4249628528976,1285.1506567087301,566.0221462888267
1533058203.658,1187.1671845867,728.0070997376608,709.4072973419186,1217.2443986608291,728.6015980268736
1533058203.6620002,1107.0528278433812,688.0137313607505,699.7325408618129,1177.0074684522274,1002.5825347480924
1533058203.6660001,1184.7408328154136,711.9999219809048,783.5694238071654,1237.3628637651298,683.4416668807646
1533058203.67,1260.0024860161593,664.0111567306099,867.4129106818557,1270.0592325521502,523.8712329471007
1533058203.674,1189.5935363579865,664.0111567306099,806.1416542842993,1224.790110739119,481.7203196053747
1533058203.678,1153.178371659416,696.0091282341353,722.3047713389468,1189.5802214782384,228.8148395550189
1533058203.6820002,1148.325668116843,632.0131852270844,696.5098233448904,1136.765387586917,349.2433779513398
1533058203.686,1150.7520198881296,632.0131852270844,690.0577843817073,1109.1012104043264,382.3672378799168
1533058203.69,1228.4400248601617,720.011702864276,731.9795278190525,1161.9160442956475,626.2333324769417
1533058203.6929998,1218.7296457426976,696.0091282341353,748.0997193330032,1194.612413082668,692.4748863140046
1533058203.697,1138.6152889993787,728.0070997376608,677.160310384679,1161.9160442956475,614.1910952393187
1533058203.701,1138.6152889993787,784.007645871327,648.136040944362,1131.7331959824876,993.5493153148524
1533058203.705,1204.161591050342,808.0102205014678,680.3830279016016,1154.3703322173576,1095.9114148446934
1533058203.7089999,1284.2759477936609,808.0102205014678,702.9552583787355,1161.9160442956475,794.8369858438456
1533058203.7129998,1255.144810441268,752.0096743678015,696.5098233448904,1151.856811743497,499.7867584718547
1533058203.717,1192.0248601615913,688.0137313607505,625.5638104672281,1169.4617563739375,824.9456619479486
1533058203.721,1192.0248601615913,632.0131852270844,577.1966319960378,1169.4617563739375,1132.0442925776533
1533058203.725,1201.7352392790556,640.0085821004691,632.0158494304112,1149.3381406129279,1017.6337897900984
1533058203.7289999,1247.8607830950903,648.0039789738538,670.7082714214959,1187.0667010043778,843.0121008144284
1533058203.732,1252.7184586699816,672.0065536039946,673.9375928677564,1202.1529745042492,541.9315057934897
1533058203.736,1182.314481044127,696.0091282341353,664.2628363876507,1156.883852691218,644.2997713434216
1533058203.74,1145.8943443132382,776.0122489979423,648.136040944362,1131.7331959824876,707.5261413560106
1533058203.744,1150.7520198881296,816.0056173748525,661.0401188707282,1131.7331959824876,553.9799090512037
1533058203.748,1184.7408328154136,808.0102205014678,690.0577843817073,1166.9430852433684,903.2232870025434
1533058203.752,1194.4512119328776,816.0056173748525,699.7325408618129,1189.5802214782384,1017.6337897900984
1533058203.756,1167.7464263517716,800.0148236280829,693.2805018986298,1184.5480298738087,1005.5915525524754
1533058203.76,1126.4735860783096,800.0148236280829,625.5638104672281,1144.3110996652072,1153.1197492485162
1533058203.764,1099.7688004972033,784.007645871327,622.3410929503056,1116.6469224826164,972.4738586439894
1533058203.768,1187.1671845867,752.0096743678015,719.0820538220242,1166.9430852433684,891.1810497649204
1533058203.772,1226.0136730888753,752.0096743678015,715.8527323757637,1214.7308781869688,1023.6518253988644
1533058203.775,1145.8943443132382,688.0137313607505,651.3653623906225,1189.5802214782384,882.1478303316806
1533058203.779,1119.189558732132,704.0045251075201,599.7688624731717,1189.5802214782384,912.2565064357834
1533058203.783,1138.6152889993787,768.000468114571,622.3410929503056,1187.0667010043778,987.5251136859954
1533058203.7870002,1189.5935363579865,824.0010142482373,693.2805018986298,1164.429564769508,773.7615291729826
1533058203.7910001,1196.8775637041642,832.0127951316084,751.3224368499258,1184.5480298738087,707.5261413560106
1533058203.795,1104.6264760720946,688.0137313607505,754.5517582961863,1184.5480298738087,1005.5915525524754
1533058203.799,1070.6376631448106,640.0085821004691,715.8527323757637,1174.4887973216582,945.3742003442694
1533058203.803,1085.2007458048479,680.0019504773793,735.202245335975,1169.4617563739375,785.8037664106056
1533058203.8070002,1126.4735860783096,655.9993758472386,796.4668978041936,1184.5480298738087,987.5251136859954
1533058203.811,1196.8775637041642,655.9993758472386,790.0214627703484,1222.2765902652586,945.3742003442694
1533058203.815,1155.6096954630207,728.0070997376608,735.202245335975,1249.9407674478493,1035.7002286565785
1533058203.8179998,1102.19515226849,728.0070997376608,651.3653623906225,1212.2122070563996,803.8702052770856
1533058203.822,1104.6264760720946,744.0142774944168,661.0401188707282,1159.402523821787,644.2997713434216
1533058203.826,1158.0360472343073,736.0024966110456,738.4249628528976,1171.9752768477979,1014.6247719857154
1533058203.83,1209.0192666252333,664.0111567306099,764.226514776292,1187.0667010043778,1168.1710042905222
1533058203.8339999,1187.1671845867,744.0142774944168,686.8350668647846,1187.0667010043778,818.9214603190916
1533058203.8379998,1126.4735860783096,752.0096743678015,632.0158494304112,1189.5802214782384,433.5452046347918
1533058203.842,1090.0584213797392,655.9993758472386,690.0577843817073,1139.2789080607777,836.9878991855716
1533058203.846,1131.331261653201,688.0137313607505,654.5880799075451,1099.041977852176,728.6015980268736
1533058203.85,1221.155997513984,720.011702864276,622.3410929503056,1154.3703322173576,460.6448629345117
1533058203.8539999,1230.8663766314482,752.0096743678015,699.7325408618129,1197.1259335565283,1035.7002286565785
1533058203.857,1182.314481044127,792.0030427447118,651.3653623906225,1192.0937419520988,797.8460036482286
1533058203.861,1133.7576134244875,768.000468114571,580.4259534422982,1166.9430852433684,436.5603884592657
1533058203.865,1153.178371659416,800.0148236280829,648.136040944362,1166.9430852433684,764.7283097397426
1533058203.869,1216.303293971411,832.0127951316084,680.3830279016016,1192.0937419520988,1062.7937209362074
1533058203.873,1194.4512119328776,840.0081920049932,667.4855539045733,1207.1851661086787,779.7857308018396
1533058203.877,1148.325668116843,880.0015603819035,628.7931319134887,1204.6716456348183,710.5351591603936
1533058203.881,1107.0528278433812,840.0081920049932,567.5218755159322,1179.520988926088,846.0211186188116
1533058203.885,1107.0528278433812,760.0050712411863,564.2991579990095,1146.8246201390675,614.1910952393187
1533058203.889,1177.4568054692356,760.0050712411863,609.4436189532773,1169.4617563739375,683.4416668807646
1533058203.893,1216.303293971411,848.003588878378,661.0401188707282,1227.3036312129796,945.3742003442694
1533058203.897,1150.7520198881296,896.0087381386594,638.4678883935943,1197.1259335565283,867.0965752896744
1533058203.9,1102.19515226849,832.0127951316084,596.5461449562491,1166.9430852433684,846.0211186188116
1533058203.904,1119.189558732132,848.003588878378,577.1966319960378,1161.9160442956475,975.4828764483724
1533058203.908,1170.172778123058,888.0133412652747,586.8713884761435,1156.883852691218,728.6015980268736
1533058203.9120002,1199.308887507769,944.0138873989409,609.4436189532773,1192.0937419520988,698.4929219227706
1533058203.9160001,1182.314481044127,984.0072557758511,586.8713884761435,1197.1259335565283,906.2323048069265
1533058203.92,1150.7520198881296,976.0118589024664,561.0764404820869,1144.3110996652072,692.4748863140046
1533058203.924,1141.0416407706653,960.0046811457104,577.1966319960378,1129.2196755086272,836.9878991855716
1533058203.928,1211.4456183965196,920.0113127688002,612.6663364701999,1159.402523821787,915.2655242401664
1533058203.9320002,1238.150403977626,944.0138873989409,615.8956579164604,1202.1529745042492,749.6770546977366
1533058203.936,1192.0248601615913,960.0046811457104,567.5218755159322,1229.81715168684,975.4828764483724
1533058203.94,1158.0360472343073,976.0118589024664,467.5648010566288,1197.1259335565283,773.7615291729826
1533058203.9429998,1182.314481044127,992.0026526492359,467.5648010566288,1177.0074684522274,891.1810497649204
1533058203.947,1255.144810441268,992.0026526492359,538.504210004953,1227.3036312129796,1035.7002286565785
1533058203.951,1264.8551895587323,976.0118589024664,599.7688624731717,1234.8493432912694,833.9788813811884
1533058203.955,1170.172778123058,952.0092842723257,615.8956579164604,1192.0937419520988,993.5493153148524
1533058203.9589999,1097.342448725917,920.0113127688002,525.6067360079248,1139.2789080607777,1174.1952059193793
1533058203.9629998,1090.0584213797392,952.0092842723257,496.58246656760787,1099.041977852176,1104.9446342779333
1533058203.967,1136.183965195774,960.0046811457104,596.5461449562491,1126.7061550347667,695.4839041183876
1533058203.971,1184.7408328154136,904.0041350120442,615.8956579164604,1171.9752768477979,463.6538807388947
1533058203.975,1133.7576134244875,872.0061635085187,599.7688624731717,1187.0667010043778,433.5452046347918
1533058203.9789999,1092.4847731510256,864.0107666351339,661.0401188707282,1182.0345093999483,590.1066207640727
1533058203.982,1082.7743940335613,832.0127951316084,635.2385669473338,1169.4617563739375,885.1630141561544
1533058203.986,1148.325668116843,888.0133412652747,612.6663364701999,1169.4617563739375,1098.9204326490765
1533058203.99,1216.303293971411,952.0092842723257,670.7082714214959,1222.2765902652586,1204.2977160033913
1533058203.994,1172.6041019266627,888.0133412652747,683.612349347862,1227.3036312129796,1129.0291087531793
1533058203.998,1141.0416407706653,816.0056173748525,632.0158494304112,1184.5480298738087,1165.1619864861393
1533058204.002,1114.336855189559,856.0153697617492,590.094105993066,1139.2789080607777,1156.1287670528993
1533058204.006,1143.4679925419516,840.0081920049932,641.6906059105169,1141.7975791913468,930.3229453022634
1533058204.01,1199.308887507769,792.0030427447118,683.612349347862,1179.520988926088,821.9366441435654
1533058204.014,1160.4623990055936,816.0056173748525,709.4072973419186,1194.612413082668,924.2987436734064
1533058204.018,1141.0416407706653,800.0148236280829,683.612349347862,1197.1259335565283,794.8369858438456
1533058204.022,1143.4679925419516,744.0142774944168,648.136040944362,1139.2789080607777,830.9636975567146
1533058204.025,1138.6152889993787,744.0142774944168,661.0401188707282,1096.5284573783156,638.2755697145647
1533058204.029,1196.8775637041642,744.0142774944168,683.612349347862,1151.856811743497,815.9124425147086
1533058204.033,1189.5935363579865,696.0091282341353,654.5880799075451,1174.4887973216582,674.4084474475246
1533058204.0370002,1131.331261653201,655.9993758472386,593.3234274393266,1154.3703322173576,448.6026256968887
1533058204.0410001,1092.4847731510256,624.0014043437131,561.0764404820869,1139.2789080607777,632.2575341057986
1533058204.045,1104.6264760720946,592.0034328401877,593.3234274393266,1151.856811743497,550.9647252267297
1533058204.049,1165.320074580485,632.0131852270844,606.2209014363548,1224.790110739119,894.1900675693036
1533058204.053,1172.6041019266627,720.011702864276,619.118375433383,1259.9999999999998,833.9788813811884
1533058204.0570002,1148.325668116843,744.0142774944168,683.612349347862,1234.8493432912694,1026.6670092233385
1533058204.061,1116.7632069608453,792.0030427447118,673.9375928677564,1184.5480298738087,1147.0955476196593
1533058204.064,1124.0472343070232,864.0107666351339,709.4072973419186,1156.883852691218,602.1488580016957
1533058204.0679998,1211.4456183965196,840.0081920049932,770.6719498101371,1207.1851661086787,322.1498856717109
1533058204.072,1213.8719701678062,848.003588878378,738.4249628528976,1239.881534895699,740.6438352644966
1533058204.076,1119.189558732132,840.0081920049932,661.0401188707282,1209.698686582539,957.4164375818924
1533058204.08,1090.0584213797392,816.0056173748525,625.5638104672281,1179.520988926088,752.6860725021196
1533058204.0839999,1104.6264760720946,824.0010142482373,641.6906059105169,1136.765387586917,1068.8179225650645
1533058204.0879998,1199.308887507769,792.0030427447118,673.9375928677564,1139.2789080607777,1418.0613005164041
1533058204.092,1221.155997513984,760.0050712411863,657.8107974244676,1169.4617563739375,1110.9688359067902
1533058204.096,1153.178371659416,816.0056173748525,641.6906059105169,1169.4617563739375,788.8189502350796
1533058204.1,1148.325668116843,864.0107666351339,619.118375433383,1164.429564769508,843.0121008144284
1533058204.1039999,1136.183965195774,856.0153697617492,599.7688624731717,1139.2789080607777,975.4828764483724
1533058204.107,1175.0304536979493,856.0153697617492,644.9133234274394,1154.3703322173576,1153.1197492485162
1533058204.111,1218.7296457426976,792.0030427447118,667.4855539045733,1197.1259335565283,1020.6428075944814
1533058204.115,1177.4568054692356,776.0122489979423,680.3830279016016,1204.6716456348183,1083.8691776070705
1533058204.119,1172.6041019266627,832.0127951316084,693.2805018986298,1197.1259335565283,972.4738586439894
1533058204.123,1184.7408328154136,840.0081920049932,686.8350668647846,1179.520988926088,692.4748863140046
1533058204.127,1257.5711622125546,824.0010142482373,719.0820538220242,1197.1259335565283,707.5261413560106
1533058204.131,1323.1224362958362,864.0107666351339,777.1239887733202,1257.4864795261394,689.4597024895306
1533058204.135,1260.0024860161593,888.0133412652747,783.5694238071654,1239.881534895699,773.7615291729826
1533058204.139,1216.303293971411,824.0010142482373,699.7325408618129,1174.4887973216582,761.7192919353596
1533058204.143,1175.0304536979493,768.000468114571,657.8107974244676,1151.856811743497,788.8189502350796
1533058204.147,1175.0304536979493,744.0142774944168,738.4249628528976,1141.7975791913468,852.0391542275776
1533058204.15,1216.303293971411,720.011702864276,790.0214627703484,1161.9160442956475,1050.7514836985845
1533058204.154,1192.0248601615913,728.0070997376608,783.5694238071654,1189.5802214782384,855.0543380520514
