timestamps,TP9,AF7,AF8,TP10,Right AUX
1533223026.801,737.4524997931776,318.9544814641014,1192.907295213712,654.1879399754491,577.6956546565408
1533223026.805,707.2897443675372,327.20412951665884,790.7574049923387,647.338226820653,577.6956546565408
1533223026.809,735.9422000386069,324.4561238854998,647.1329244335858,654.1879399754491,543.3467709701364
1533223026.813,803.8068554725202,318.9544814641014,892.5260789895864,654.1879399754491,440.30011991092323
1533223026.8170002,849.0479000634256,338.2017832003754,1224.5042103067349,662.7527118771452,565.2057328841431
1533223026.821,805.3140666795356,332.700140778977,1156.3855743530714,661.0376531302454,983.6468908810598
1533223026.825,714.8288889501696,321.70248709526044,638.5153547507957,659.3261016609466,533.9777308285272
1533223026.829,734.4349888315915,343.7034256217739,560.9572276056854,674.7405867174388,212.34146062924677
1533223026.832,782.693544384083,338.2017832003754,820.3028779558814,681.590299872235,262.3075429680807
1533223026.836,809.8387888481373,327.20412951665884,1084.1623733193665,700.4278878673248,427.81019813852555
1533223026.84,820.3954443923559,340.9497888315345,1286.8786402157455,712.4157627076185,774.4263118826013
1533223026.8439999,751.0235777514271,338.2017832003754,903.6052111456446,703.8509908059224,799.4061554273967
1533223026.8479998,738.959711000193,307.9568277803848,702.9412267892866,717.5539243931158,918.0700051390396
1533223026.8520002,787.2182665526846,327.20412951665884,892.5260789895864,746.6643284815995,696.3595043681835
1533223026.856,802.2996442655048,321.70248709526044,1199.472582356481,731.2533507027082,527.7359675669502
1533223026.86,775.1543998014505,310.70483341154386,1305.3449810232298,715.838865646216,805.6543139382172
1533223026.8639998,763.0874445026611,332.700140778977,897.4500443466634,717.5539243931158,680.7423057157539
1533223026.8679998,784.2007555910984,316.20647583294226,574.499603056093,726.1151890172108,471.5217267172956
1533223026.871,817.3779334307696,321.70248709526044,727.9728547395403,739.8146153268033,749.4464683378061
1533223026.875,835.4768221051761,324.4561238854998,1179.3649197633044,751.8024901670968,986.7677725118483
1533223026.879,788.7254777597,329.9521351478179,1345.5594657990428,760.3672620687929,790.0371152857875
1533223026.883,720.8608223257867,340.9497888315345,974.1870903936573,729.5417992334094,615.1654199737337
1533223026.887,707.2897443675372,327.20412951665884,719.3552850567502,712.4157627076185,846.2449608861988
1533223026.891,737.4524997931776,313.4584702017832,808.4026647017068,717.5539243931158,943.0498486838349
1533223026.895,773.6441000468798,329.9521351478179,1121.0942145237948,712.4157627076185,927.4390452806487
1533223026.899,758.5627223340595,327.20412951665884,1284.4162373319366,717.5539243931158,1177.2502712270884
1533223026.9029999,726.895844248959,313.4584702017832,933.1515245197279,708.9891524914199,1027.3648147090732
1533223026.907,713.3216777431542,296.9591740966682,647.5430447773738,681.590299872235,724.4602295437674
1533223026.911,690.7011554477015,269.4622243078367,826.8690055091912,693.5781747125286,1149.1495460515046
1533223026.914,722.3711220803574,258.46457062412014,917.5577069398402,712.4157627076185,843.1240792554103
1533223026.918,744.9916443758101,272.2102299389958,1032.0468348788384,700.4278878673248,355.9851538856848
1533223026.9220002,692.2083666547169,288.70952604411076,1087.445016890751,693.5781747125286,590.1855764289384
1533223026.926,642.44259989521,310.70483341154386,777.6259902962597,679.8752411253352,821.2651173414034
1533223026.93,652.9992554394286,313.4584702017832,766.5460177296609,686.7284615577324,711.9703077713697
1533223026.934,696.7330888233186,307.9568277803848,1033.6881566645307,698.716336398026,696.3595043681835
1533223026.938,701.2578109919201,299.70717972782734,1298.77885346992,698.716336398026,993.0095357734255
1533223026.9420002,665.0631221906626,272.2102299389958,1115.3491680686016,698.716336398026,902.4528064866099
1533223026.946,633.3931555580068,272.2102299389958,727.9728547395403,685.0134028108326,1033.6065779706503
1533223026.95,640.9353886881946,269.4622243078367,700.4788239054778,688.4400130270312,896.2110432250327
1533223026.954,708.7969555745526,269.4622243078367,1015.2226562675867,698.716336398026,924.3117684006166
1533223026.957,711.8144665361388,299.70717972782734,1199.8827027002692,717.5539243931158,605.802775081368
1533223026.961,651.4889556848578,294.21116846550916,933.1515245197279,729.5417992334094,49.966082338833914
1533223026.965,648.474533270827,294.21116846550916,623.7426182690244,715.838865646216,334.12619197167805
1533223026.9689999,693.7155778617323,291.4575316752698,727.9728547395403,702.1394393366236,537.0986124593159
1533223026.9729998,726.895844248959,307.9568277803848,1050.1030553425348,702.1394393366236,905.5800833666419
1533223026.9770002,740.4669222072084,329.9521351478179,1346.7906672409472,705.5660495528223,1339.6320447667447
1533223026.981,687.6836444861153,291.4575316752698,1229.4290160743524,707.2776010221211,1155.3913093130818
1533223026.985,625.8540109753743,288.70952604411076,790.3472846485508,703.8509908059224,1199.1092331410953
1533223026.9889998,656.0136778534594,307.9568277803848,705.8137500168832,686.7284615577324,1199.1092331410953
1533223026.9929998,702.7650221989355,305.20882214922574,835.4865751919813,690.15156449633,836.8759207445896
1533223026.996,758.5627223340595,318.9544814641014,1121.0942145237948,707.2776010221211,1295.9141209387312
1533223027.0,728.4030554559744,327.20412951665884,1243.3806714580073,703.8509908059224,1489.5175012847599
1533223027.004,668.0806331522489,329.9521351478179,790.7574049923387,667.8873662850416,849.3722377662308
1533223027.008,687.6836444861153,324.4561238854998,548.2367736639349,669.6024250319414,880.5938445726032
1533223027.012,693.7155778617323,318.9544814641014,743.976792663216,676.4521381867376,936.8016901730143
1533223027.016,701.2578109919201,316.20647583294226,1154.3332918130507,685.0134028108326,833.7550391138011
1533223027.02,707.2897443675372,340.9497888315345,1247.8945164712961,705.5660495528223,952.4188888254439
1533223027.024,681.6517111104984,321.70248709526044,810.454106831187,686.7284615577324,849.3722377662308
1533223027.0279999,683.1589223175138,296.9591740966682,627.025261840409,676.4521381867376,949.2980071946554
1533223027.032,751.0235777514271,346.4514312529329,820.7129982996694,697.0012776511262,1395.839890367156
1533223027.036,797.7749220969032,362.95072735804786,997.1664358038902,712.4157627076185,1105.431622223491
1533223027.039,752.5307889584425,343.7034256217739,1122.3254159656992,722.6920860786132,843.1240792554103
1533223027.043,689.1908556931307,338.2017832003754,858.0558002584262,722.6920860786132,1086.6935419402728
1533223027.0470002,677.1269889418967,318.9544814641014,574.9097233998808,698.716336398026,1014.8684976874322
1533223027.051,734.4349888315915,318.9544814641014,693.0924556645922,691.8631159656288,686.9904642265744
1533223027.055,772.1368888398644,316.20647583294226,944.6407770195741,729.5417992334094,374.723234168903
1533223027.059,734.4349888315915,291.4575316752698,1073.9034818508842,734.6764536413058,549.5949294809569
1533223027.063,684.6692220720845,285.96152041295164,841.6417419909626,683.3018513415338,696.3595043681835
1533223027.0670002,683.1589223175138,296.9591740966682,545.7743707801261,666.1758148157428,306.02546679609424
1533223027.071,708.7969555745526,296.9591740966682,639.3355954383717,673.025527970539,496.5079655113343
1533223027.075,735.9422000386069,266.7142186766776,1006.6050865847967,683.3018513415338,587.0646947981498
1533223027.079,722.3711220803574,283.20788362271236,1182.237442990901,678.1636896560364,596.4337349397589
1533223027.082,665.0631221906626,294.21116846550916,892.1151182352579,669.6024250319414,777.54719351339
1533223027.086,621.3292888067728,269.4622243078367,618.407692157619,652.4763885061504,905.5800833666419
1533223027.09,643.9498111022255,283.20788362271236,679.1399598703966,640.4885136658568,730.7083880545879
1533223027.0939999,716.3391887047404,280.45987799155324,997.5773965582187,645.6266753513542,805.6543139382172
1533223027.0979998,714.8288889501696,263.9605818864383,1211.3727956106559,650.7648370368516,1005.5058527950665
1533223027.1020002,671.0950555662797,302.4551853589864,873.649617838314,645.6266753513542,827.513275852224
1533223027.106,633.3931555580068,327.20412951665884,431.2852428411279,645.6266753513542,583.9438131673613
1533223027.11,633.3931555580068,321.70248709526044,558.4956651324172,673.025527970539,524.6086906869182
1533223027.1139998,696.7330888233186,302.4551853589864,903.6052111456446,674.7405867174388,805.6543139382172
1533223027.1179998,722.3711220803574,277.7118723603942,1027.1228695217615,669.6024250319414,755.6882315993832
1533223027.121,672.6022667732951,266.7142186766776,1032.8679159769547,679.8752411253352,593.306458059727
1533223027.125,637.9178777266084,294.21116846550916,780.4985135238564,683.3018513415338,989.8886541426369
1533223027.129,659.0311888150457,302.4551853589864,719.7654054005382,676.4521381867376,902.4528064866099
1533223027.133,726.895844248959,283.20788362271236,1032.4577956331668,686.7284615577324,540.2258893393478
1533223027.137,737.4524997931776,294.21116846550916,1262.2571326092796,700.4278878673248,593.306458059727
1533223027.141,686.1764332790999,307.9568277803848,1088.6762183326555,707.2776010221211,708.8494261405812
1533223027.145,674.1125665278659,313.4584702017832,672.1645523838395,707.2776010221211,674.5005424541768
1533223027.149,705.7825331605218,318.9544814641014,597.8899092206543,703.8509908059224,768.1781533717808
1533223027.1529999,738.959711000193,310.70483341154386,791.9886064342431,679.8752411253352,602.675498201336
1533223027.157,722.3711220803574,302.4551853589864,1095.2423458859653,676.4521381867376,868.1039228002055
1533223027.161,684.6692220720845,310.70483341154386,1186.75128800419,681.590299872235,1127.290584137498
1533223027.164,643.9498111022255,305.20882214922574,779.267312081952,664.464263346444,590.1855764289384
1533223027.168,648.474533270827,291.4575316752698,698.4273817759976,666.1758148157428,833.7550391138011
1533223027.1720002,693.7155778617323,277.7118723603942,959.0033931575574,691.8631159656288,1008.626734425855
1533223027.176,701.2578109919201,241.96527451900516,1214.2453188382524,710.7042112383197,768.1781533717808
1533223027.18,640.9353886881946,233.71562646644767,1158.0268961387637,702.1394393366236,883.7211214526352
1533223027.184,630.378733143976,241.96527451900516,696.3750992359768,695.2897261818274,736.950151316165
1533223027.188,648.474533270827,233.71562646644767,587.6310177521719,683.3018513415338,543.3467709701364
1533223027.1920002,704.2722334059509,258.46457062412014,862.1595249279272,683.3018513415338,484.0180437389367
1533223027.196,754.0410887130132,255.71656499296105,1146.946923572165,703.8509908059224,840.0031976246217
1533223027.2,722.3711220803574,178.72735804786484,1148.5882453578572,770.6400781621867,930.5599269114372
1533223027.2029998,711.8144665361388,222.71797278273112,831.3828505224802,803.1805997444699,743.1983098269856
1533223027.207,674.1125665278659,302.4551853589864,694.3236571064965,693.5781747125286,761.9363901102038
1533223027.211,648.474533270827,321.70248709526044,835.8966955357693,633.6388005110606,549.5949294809569
1533223027.215,683.1589223175138,343.7034256217739,1111.6564041534289,643.9151238820554,430.9310797693141
1533223027.2189999,656.0136778534594,360.1970905678085,1259.384609381683,601.1017862063784,808.7751955690057
1533223027.2229998,619.8220775997573,368.44673862036603,904.0161718999732,578.83758799509,802.5270370581852
1533223027.2270002,616.8045666381712,390.44204598779913,644.670521549777,549.7236766290054,571.4538913949636
1533223027.231,662.0456112290765,406.9413420929141,849.4382305756362,544.5855149435079,718.2184662821902
1533223027.235,690.7011554477015,439.93430314406385,1075.1346832927886,541.1624120049103,830.6341574830125
1533223027.2389998,666.570333397678,445.43594556546225,1154.3332918130507,534.3126988501141,683.8695825957859
1533223027.2429998,646.9673220638116,412.4429845143125,894.5775211190667,527.4594784177169,665.1315023125677
1533223027.246,645.4570223092409,409.68934772407323,627.435382184197,537.7358017887117,780.6680751441785
1533223027.25,692.2083666547169,376.6963866729235,861.3384438298109,560.0000000000001,658.8833438017472
1533223027.254,735.9422000386069,351.94744251525105,1111.246283809641,570.2728160933939,721.3393479129788
1533223027.258,738.959711000193,354.70107930549034,1252.4083614845852,619.9393742014681,980.5196140010278
1533223027.262,705.7825331605218,354.70107930549034,1151.050648241666,630.212190294862,986.7677725118483
1533223027.266,695.2258776163031,376.6963866729235,819.8927576120935,618.2243154545683,1002.3785759150345
1533223027.27,731.4174778700052,362.95072735804786,913.0438619265511,631.9272490417618,1108.5525038542796
1533223027.274,769.1193778782781,338.2017832003754,1210.55255492308,643.9151238820554,1005.5058527950665
1533223027.2779999,776.6616110084659,321.70248709526044,1377.1572213026063,674.7405867174388,1161.6394678239024
1533223027.282,738.959711000193,310.70483341154386,1097.2937880154454,691.8631159656288,1061.7136983954776
1533223027.286,711.8144665361388,307.9568277803848,698.4273817759976,673.025527970539,640.1516587677723
1533223027.289,752.5307889584425,310.70483341154386,775.9846685105674,698.716336398026,936.8016901730143
1533223027.293,788.7254777597,296.9591740966682,1005.3738851428923,714.1273141769173,952.4188888254439
1533223027.2970002,808.3315776411218,280.45987799155324,1211.3727956106559,700.4278878673248,1064.8345800262662
1533223027.301,755.5482999200286,291.4575316752698,1198.2413809145767,688.4400130270312,924.3117684006166
1533223027.305,686.1764332790999,294.21116846550916,849.0281102318482,681.590299872235,331.00531034088954
1533223027.309,729.9102666629898,305.20882214922574,881.0359860791997,697.0012776511262,549.5949294809569
1533223027.313,784.2007555910984,302.4551853589864,1165.4132643796495,708.9891524914199,512.1187689145205
1533223027.3170002,764.5977442572319,296.9591740966682,1394.8024810119744,731.2533507027082,621.4135784845543
1533223027.321,757.055511127044,310.70483341154386,1234.3529814314293,726.1151890172108,736.950151316165
1533223027.325,735.9422000386069,332.700140778977,805.9402618178981,724.403637547912,418.44115799691644
1533223027.3279998,725.3855444943882,329.9521351478179,844.9243855623472,741.5296740737031,868.1039228002055
1533223027.332,787.2182665526846,321.70248709526044,1128.0704624208927,755.2291003832954,989.8886541426369
1533223027.336,809.8387888481373,324.4561238854998,1266.3608572787807,772.3551369090865,677.6214240849654
1533223027.34,773.6441000468798,327.20412951665884,1166.644465821554,765.5054237542903,896.2110432250327
1533223027.3439999,722.3711220803574,316.20647583294226,881.0359860791997,743.2412255430019,927.4390452806487
1533223027.3479998,743.4844331687947,321.70248709526044,848.2070291337318,741.5296740737031,615.1654199737337
1533223027.3520002,799.2821333039186,351.94744251525105,1044.3580088873414,724.403637547912,552.7158111117454
1533223027.356,788.7254777597,335.45377756921636,1205.2176288116746,714.1273141769173,768.1781533717808
1533223027.36,764.5977442572319,327.20412951665884,1281.5437141043399,719.2654758624146,755.6882315993832
1533223027.3639998,758.5627223340595,329.9521351478179,1034.509237762647,717.5539243931158,927.4390452806487
1533223027.3679998,769.1193778782781,302.4551853589864,860.1080827984471,698.716336398026,746.3191914577741
1533223027.371,770.6296776328489,294.21116846550916,1045.9993306730337,698.716336398026,402.82395934448687
1533223027.375,790.2326889667154,296.9591740966682,1324.2214421745023,705.5660495528223,212.34146062924677
1533223027.379,743.4844331687947,274.9638667292351,1350.8943919104483,697.0012776511262,343.49523211328716
1533223027.383,681.6517111104984,269.4622243078367,919.6091490693203,697.0012776511262,640.1516587677723
1533223027.387,684.6692220720845,280.45987799155324,739.462947649927,691.8631159656288,562.0848512533545
1533223027.391,708.7969555745526,288.70952604411076,1079.2384079622896,685.0134028108326,455.9109233141094
1533223027.395,754.0410887130132,288.70952604411076,1244.2017525561237,690.15156449633,306.02546679609424
1533223027.399,738.959711000193,283.20788362271236,1335.3005743305605,698.716336398026,502.74972877291145
1533223027.4029999,732.927777624576,305.20882214922574,1197.421140227001,712.4157627076185,840.0031976246217
1533223027.407,725.3855444943882,296.9591740966682,887.191152878181,707.2776010221211,652.64158054017
1533223027.411,722.3711220803574,255.71656499296105,1054.2067800120358,703.8509908059224,840.0031976246217
1533223027.414,757.055511127044,269.4622243078367,1436.6591279840202,720.9770273317134,1096.062582081882
1533223027.418,751.0235777514271,291.4575316752698,1495.7500739111056,724.403637547912,999.257694284246
1533223027.4220002,704.2722334059509,296.9591740966682,1155.154372911167,693.5781747125286,1133.532347399075
1533223027.426,693.7155778617323,302.4551853589864,848.6179898880603,683.3018513415338,883.7211214526352
1533223027.43,732.927777624576,285.96152041295164,948.3343813452872,702.1394393366236,1008.626734425855
1533223027.434,758.5627223340595,302.4551853589864,1281.5437141043399,722.6920860786132,1036.727459601439
1533223027.438,735.9422000386069,302.4551853589864,1474.822170630353,717.5539243931158,974.2778507394507
1533223027.4420002,717.8463999117558,310.70483341154386,1203.5763070259823,707.2776010221211,1249.0753154799293
1533223027.446,708.7969555745526,307.9568277803848,848.6179898880603,688.4400130270312,1061.7136983954776
1533223027.45,728.4030554559744,305.20882214922574,1020.1466216246637,700.4278878673248,1092.93530520185
1533223027.4529998,748.0060667898409,316.20647583294226,1200.2936634545977,702.1394393366236,980.5196140010278
1533223027.457,652.9992554394286,269.4622243078367,1296.3164505861114,645.6266753513542,1021.1166561982527
1533223027.461,570.0532222926951,250.21492257156265,1208.9112331373876,614.8012125159707,971.1569691086621
1533223027.465,561.0068665030471,283.20788362271236,805.5301414741101,607.9514993611746,721.3393479129788
1533223027.4689999,597.1984667567493,296.9591740966682,938.0754898768048,621.6509256707669,1064.8345800262662
1533223027.4729998,662.0456112290765,291.4575316752698,1281.9546748586686,640.4885136658568,808.7751955690057
1533223027.4770002,674.1125665278659,302.4551853589864,1351.714632598024,652.4763885061504,640.1516587677723
1533223027.481,637.9178777266084,302.4551853589864,1122.7363767200277,654.1879399754491,877.4729629418147
1533223027.485,615.2973554311558,302.4551853589864,814.557831500688,640.4885136658568,474.6490035973276
1533223027.4889998,624.3437112208036,294.21116846550916,953.6693074566926,637.0619034496582,484.0180437389367
1533223027.4929998,648.474533270827,285.96152041295164,1202.3451055840778,657.6145501916478,815.0169588305829
1533223027.496,640.9353886881946,288.70952604411076,1301.6513766975168,666.1758148157428,1002.3785759150345
1533223027.5,652.9992554394286,305.20882214922574,1214.2453188382524,674.7405867174388,802.5270370581852
1533223027.504,656.0136778534594,318.9544814641014,907.2988154713578,674.7405867174388,658.8833438017472
1533223027.508,660.5384000220611,321.70248709526044,933.9717652073037,662.7527118771452,699.4803859989721
1533223027.512,731.4174778700052,321.70248709526044,1201.5248648965019,667.8873662850416,724.4602295437674
1533223027.516,744.9916443758101,324.4561238854998,1420.6551900603445,688.4400130270312,711.9703077713697
1533223027.52,690.7011554477015,324.4561238854998,1278.2610705329553,714.1273141769173,821.2651173414034
1533223027.524,642.44259989521,324.4561238854998,807.9925443579189,700.4278878673248,1011.7476160566437
1533223027.5279999,659.0311888150457,335.45377756921636,749.3117187746215,688.4400130270312,846.2449608861988
1533223027.532,704.2722334059509,318.9544814641014,1083.3412922212501,715.838865646216,527.7359675669502
1533223027.536,716.3391887047404,316.20647583294226,1244.2017525561237,722.6920860786132,568.3266145149316
1533223027.539,674.1125665278659,332.700140778977,1260.2056904797994,720.9770273317134,608.9236567121566
1533223027.543,637.9178777266084,310.70483341154386,998.8085980001231,719.2654758624146,471.5217267172956
1533223027.5470002,666.570333397678,299.70717972782734,886.781032534393,717.5539243931158,690.111345857363
1533223027.551,701.2578109919201,296.9591740966682,1160.488458612032,736.3915123882057,1117.9215439958887
1533223027.555,713.3216777431542,291.4575316752698,1374.6948184187977,760.3672620687929,977.398732370239
1533223027.559,689.1908556931307,294.21116846550916,1297.958612782344,751.8024901670968,646.3934220293495
1533223027.563,618.3117778451865,266.7142186766776,922.0715519531291,743.2412255430019,640.1516587677723
1533223027.5670002,637.9178777266084,283.20788362271236,771.4708234972784,736.3915123882057,818.1442357106149
1533223027.571,707.2897443675372,316.20647583294226,993.8837922325056,739.8146153268033,968.0296922286302
1533223027.575,729.9102666629898,313.4584702017832,1158.0268961387637,722.6920860786132,955.5397704562325
1533223027.5779998,692.2083666547169,321.70248709526044,1186.75128800419,708.9891524914199,896.2110432250327
1533223027.582,649.9817444778424,310.70483341154386,1025.891668079857,707.2776010221211,711.9703077713697
1533223027.586,666.570333397678,299.70717972782734,830.5617694243638,700.4278878673248,527.7359675669502
1533223027.59,702.7650221989355,296.9591740966682,1007.4253272723726,724.403637547912,362.2333123965053
1533223027.5939999,702.7650221989355,296.9591740966682,1314.7827913935957,727.8267404865096,499.6288471421229
1533223027.5979998,683.1589223175138,291.4575316752698,1379.2086634320865,732.964902172007,918.0700051390396
1533223027.6020002,684.6692220720845,294.21116846550916,1007.4253272723726,729.5417992334094,758.8091132301718
1533223027.606,683.1589223175138,294.21116846550916,759.1596494887752,686.7284615577324,924.3117684006166
1533223027.61,698.240300030334,285.96152041295164,960.2345945994618,669.6024250319414,1114.7942671158569
1533223027.6139998,738.959711000193,296.9591740966682,1264.3094151493003,686.7284615577324,983.6468908810598
1533223027.6179998,729.9102666629898,285.96152041295164,1272.92614442155,686.7284615577324,1096.062582081882
1533223027.621,643.9498111022255,280.45987799155324,913.864102614127,673.025527970539,790.0371152857875
1533223027.625,616.8045666381712,280.45987799155324,734.1280215385216,666.1758148157428,880.5938445726032
1533223027.629,656.0136778534594,274.9638667292351,996.3461951163143,686.7284615577324,1295.9141209387312
1533223027.633,686.1764332790999,283.20788362271236,1144.8954814426847,715.838865646216,1139.7805059098955
1533223027.637,674.1125665278659,302.4551853589864,1129.711784206585,707.2776010221211,880.5938445726032
1533223027.641,643.9498111022255,313.4584702017832,1098.935109801138,707.2776010221211,1002.3785759150345
1533223027.645,637.9178777266084,305.20882214922574,807.5824240141309,707.2776010221211,949.2980071946554
1533223027.649,654.506466646444,288.70952604411076,876.1111803115822,707.2776010221211,968.0296922286302
1533223027.6529999,725.3855444943882,296.9591740966682,1198.6523416689054,736.3915123882057,1195.9883515103065
1533223027.657,723.8783332873728,313.4584702017832,1272.92614442155,727.8267404865096,624.5344601153428
1533223027.66,663.5559109836472,321.70248709526044,1029.58527240557,700.4278878673248,368.47507565808246
1533223027.664,631.8859443509914,321.70248709526044,624.9729793003883,697.0012776511262,583.9438131673613
1533223027.668,645.4570223092409,285.96152041295164,666.0085451743176,697.0012776511262,318.51538856849186
1533223027.6720002,708.7969555745526,280.45987799155324,1070.2107179357115,719.2654758624146,384.0922743105121
1533223027.676,726.895844248959,291.4575316752698,1310.2689463803067,738.1030638575045,696.3595043681835
1533223027.68,684.6692220720845,277.7118723603942,1161.3095397101483,722.6920860786132,683.8695825957859
1533223027.684,648.474533270827,269.4622243078367,781.3195946219728,703.8509908059224,765.0572717409923
1533223027.688,672.6022667732951,266.7142186766776,788.7059628628585,697.0012776511262,790.0371152857875
1533223027.6920002,731.4174778700052,285.96152041295164,999.218718343911,715.838865646216,549.5949294809569
1533223027.696,719.3536111187713,299.70717972782734,1166.2335050672255,739.8146153268033,671.3732655741449
1533223027.7,696.7330888233186,299.70717972782734,1168.695907951034,741.5296740737031,711.9703077713697
1533223027.7029998,680.1444999034829,318.9544814641014,851.900633459445,738.1030638575045,711.9703077713697
1533223027.707,695.2258776163031,305.20882214922574,811.6853082730914,741.5296740737031,1021.1166561982527
1533223027.711,746.4988555828255,296.9591740966682,1008.246408370489,727.8267404865096,955.5397704562325
1533223027.715,766.1049554642473,305.20882214922574,1198.6523416689054,750.090938697798,683.8695825957859
1533223027.7189999,704.2722334059509,288.70952604411076,1220.8114463915622,731.2533507027082,777.54719351339
1533223027.7229998,642.44259989521,296.9591740966682,863.3907263698317,707.2776010221211,943.0498486838349
1533223027.7270002,672.6022667732951,294.21116846550916,757.108207359295,722.6920860786132,1067.9554616570547
1533223027.731,714.8288889501696,272.2102299389958,1020.9677027227801,722.6920860786132,914.9427282590076
1533223027.735,755.5482999200286,302.4551853589864,1148.1781250140693,738.1030638575045,777.54719351339
1533223027.7389998,720.8608223257867,318.9544814641014,1141.6119974607595,739.8146153268033,799.4061554273967
1533223027.7429998,656.0136778534594,294.21116846550916,885.5498310924887,710.7042112383197,505.8770056529434
1533223027.746,684.6692220720845,280.45987799155324,617.5866110595026,707.2776010221211,43.71792382801329
1533223027.75,728.4030554559744,302.4551853589864,927.8165984083224,708.9891524914199,477.76988522811615
1533223027.754,761.5802332956457,313.4584702017832,1328.7352871877913,707.2776010221211,793.1579969165762
1533223027.758,741.9741334142238,305.20882214922574,1187.5723691023065,707.2776010221211,555.836692742534
1533223027.762,698.240300030334,310.70483341154386,807.1714632598024,695.2897261818274,446.5418831725003
1533223027.766,699.7475112373494,318.9544814641014,734.949102636638,683.3018513415338,637.0243818877404
1533223027.77,699.7475112373494,307.9568277803848,1040.2542842178404,685.0134028108326,727.5875064237994
1533223027.774,737.4524997931776,296.9591740966682,1178.5446790757285,678.1636896560364,690.111345857363
1533223027.7779999,725.3855444943882,310.70483341154386,1130.9429856484892,654.1879399754491,683.8695825957859
1533223027.782,625.8540109753743,318.9544814641014,982.8046600764474,652.4763885061504,399.7030777136983
1533223027.785,624.3437112208036,329.9521351478179,780.0883931800685,655.902998722349,618.2926968537656
1533223027.789,646.9673220638116,332.700140778977,1007.0152069285846,607.9514993611746,1027.3648147090732
1533223027.793,686.1764332790999,409.68934772407323,1286.4685198719574,614.8012125159707,918.0700051390396
1533223027.7970002,744.9916443758101,464.6832473017363,1277.029869091051,717.5539243931158,530.8568491977387
1533223027.801,591.1665333811322,368.44673862036603,1037.3817609902437,625.0740286093645,1030.4856963398618
1533223027.805,475.04641094228276,365.6987329892069,691.0410135351119,482.93458927274105,1355.242848169931
1533223027.809,533.8616220389929,395.94368840919753,803.4786993446298,472.65826590174623,1161.6394678239024
1533223027.813,506.71328902738327,351.94744251525105,1078.4173268641732,445.2594132825614,815.0169588305829
1533223027.8170002,462.9794556434934,387.6940403566401,1156.7956946968595,409.2957887616806,818.1442357106149
1533223027.821,390.5931665885338,395.94368840919753,1083.7522529755786,378.47032592629716,883.7211214526352
1533223027.825,342.33461103604225,376.6963866729235,796.91257179132,339.08009118921774,652.64158054017
1533223027.8279998,354.3984777872763,371.1947442515251,893.7572804314908,303.11997394593794,630.7826186261633
1533223027.832,345.3490334500731,332.700140778977,1204.8075084678865,268.86790089435584,618.2926968537656
1533223027.836,333.28516669883896,351.94744251525105,1329.1454075315792,260.30663627026087,696.3595043681835
1533223027.84,253.35664451369152,351.94744251525105,1099.7561908992543,212.35513690908644,858.7348826585965
1533223027.8439999,143.26845545045916,294.21116846550916,752.594362346006,123.30185134153379,1017.9957745674642
1533223027.8479998,156.8395334087086,296.9591740966682,818.6615561701891,106.17581481574277,927.4390452806487
1533223027.8520002,185.49507762733364,329.9521351478179,1016.863978053279,90.76483703685157,599.5546165705475
1533223027.856,137.23652207484213,329.9521351478179,1120.684094180007,49.66305083047333,690.111345857363
1533223027.86,88.9779665223506,310.70483341154386,1051.3342567844393,34.24856577398111,833.7550391138011
1533223027.8639998,54.29048892810845,299.70717972782734,731.6656186547128,39.38672745947852,512.1187689145205
1533223027.8679998,93.49960014339675,310.70483341154386,859.2870017003306,41.101786206378335,780.6680751441785
1533223027.871,159.8570443702949,351.94744251525105,1155.974613598743,53.08966104667194,774.4263118826013
1533223027.875,146.2828778644899,349.199436884092,1309.0377449384025,41.101786206378335,746.3191914577741
1533223027.879,107.07376664920157,360.1970905678085,1201.93498524029,39.38672745947852,1161.6394678239024
1533223027.883,117.63042219342039,371.1947442515251,807.1714632598024,87.33822682065296,1274.0551590247244
1533223027.887,135.72622232027135,329.9521351478179,719.7654054005382,119.87524112533518,911.8218466282191
1533223027.891,227.7186112566528,291.4575316752698,1023.8402259503767,176.39151238820574,886.8420030834237
1533223027.895,285.0266111463475,288.70952604411076,1269.2333805063774,217.49329859458385,1249.0753154799293
1533223027.899,262.4060888508948,329.9521351478179,1059.130745369113,236.33088658967367,1099.1834637126706
1533223027.9029999,278.9946777707305,285.96152041295164,629.4868243136772,296.2667535135407,758.8091132301718
1533223027.907,334.79237790585444,244.71891130924448,655.7496537058353,351.06796602951135,587.0646947981498
1533223027.91,491.63499986211843,305.20882214922574,1032.0468348788384,429.8449282260692,680.7423057157539
1533223027.914,594.1840443427185,266.7142186766776,1242.5604307704314,525.7479269484181,790.0371152857875
1533223027.918,580.6098778369137,208.97231346785546,1137.919233545587,578.83758799509,802.5270370581852
1533223027.9220002,621.3292888067728,219.96996715157204,731.2554983109248,657.6145501916478,380.9649974304801
1533223027.926,660.5384000220611,228.21961520412952,650.4155680049704,703.8509908059224,580.8165362873293
1533223027.93,754.0410887130132,258.46457062412014,1060.7720671548052,753.5175489139966,1155.3913093130818
1533223027.934,818.8882331853405,247.46691694040356,1153.9231714692628,820.3066362702609,1117.9215439958887
1533223027.938,814.3635110167388,228.21961520412952,1021.787943410356,840.8557757346496,574.5747730257522
1533223027.9420002,830.9520999365744,269.4622243078367,856.004358128946,880.242503194128,496.5079655113343
1533223027.946,829.444888729559,280.45987799155324,619.2279328451949,892.2303780344215,833.7550391138011
1533223027.95,865.6364889832612,250.21492257156265,862.9797656155032,917.9211864619086,896.2110432250327
1533223027.9529998,956.1216667126272,247.46691694040356,1096.4735473278697,960.7345241375855,818.1442357106149
1533223027.957,974.2205553870336,280.45987799155324,1095.6524662297531,977.8570533857754,914.9427282590076
1533223027.961,909.3734109147065,299.70717972782734,968.4420439384639,989.8449282260691,846.2449608861988
1533223027.965,906.3558999531202,250.21492257156265,740.2831883375029,1006.9709647518602,761.9363901102038
1533223027.9689999,992.3163555138847,228.21961520412952,929.4579201940148,1029.2351629631485,774.4263118826013
1533223027.9729998,1028.511044315142,250.21492257156265,1206.4488302535788,1053.2109126437358,805.6543139382172
1533223027.9770002,996.8410776824862,244.71891130924448,1242.149470016103,1056.6340155823334,961.7879289670531
1533223027.981,960.6463888812287,261.2125762552792,978.2899746526178,1056.6340155823334,1064.8345800262662
1533223027.985,942.5505887543777,277.7118723603942,700.8889442492658,1068.6218904226268,1083.5726603094845
1533223027.9889998,1008.9049444337203,255.71656499296105,871.1872149545053,1068.6218904226268,849.3722377662308
1533223027.9929998,1081.2943220362354,244.71891130924448,1076.776005078481,1060.0606257985319,815.0169588305829
1533223027.996,1039.0676998593608,261.2125762552792,1163.3609818396287,1066.9103389533284,1030.4856963398618
1533223028.0,989.2988445522985,277.7118723603942,1037.7918813340316,1066.9103389533284,480.8907668589047
1533223028.004,975.7277665940491,294.21116846550916,773.5222656267587,1053.2109126437358,346.6161137440758
1533223028.008,998.3482888895016,302.4551853589864,959.414353911886,1046.3611994889395,640.1516587677723
1533223028.012,1030.0182555221575,291.4575316752698,1226.1455320924272,1025.80855274695,587.0646947981498
1533223028.016,990.8091443068693,288.70952604411076,1345.149345455255,1018.9588395921537,889.9628847142124
1533223028.02,924.4517000799714,305.20882214922574,1216.7077217220613,1032.658265901746,977.398732370239
1533223028.024,898.8167553704878,318.9544814641014,855.5933973746176,1032.658265901746,558.9575743733226
1533223028.0279999,927.4692110415575,307.9568277803848,938.4856102205928,1018.9588395921537,565.2057328841431
1533223028.032,969.695833218432,274.9638667292351,1263.488334051184,1012.1091264373578,836.8759207445896
1533223028.035,944.0577999613931,272.2102299389958,1435.4279265421158,1010.3975749680587,718.2184662821902
1533223028.039,868.6539999448473,302.4551853589864,1197.8312605707888,1001.8328030663627,668.2523839433562
1533223028.043,791.7429887212861,321.70248709526044,846.9758276918275,967.5842372923817,652.64158054017
1533223028.0470002,818.8882331853405,296.9591740966682,1039.8441638740526,953.8813037051883,899.3319248558214
1533223028.051,886.7498000716985,285.96152041295164,1378.7985430882986,964.1576270761831,961.7879289670531
1533223028.055,862.6220665692304,302.4551853589864,1385.7747909853963,940.1818773955958,1067.9554616570547
1533223028.059,805.3140666795356,274.9638667292351,1289.751163443342,924.7708996167047,1217.8473134243134
1533223028.063,751.0235777514271,266.7142186766776,1053.3856989139194,921.344289400506,780.6680751441785
1533223028.0670002,788.7254777597,266.7142186766776,1005.3738851428923,912.7830247764111,671.3732655741449
1533223028.071,833.9696108981607,283.20788362271236,1329.555527875367,929.9090613022021,840.0031976246217
1533223028.075,830.9520999365744,316.20647583294226,1509.7025697053011,928.1940025553023,802.5270370581852
1533223028.0779998,793.2501999283015,316.20647583294226,1391.5198374405898,917.9211864619086,861.8621595386285
1533223028.082,772.1368888398644,316.20647583294226,1043.1268074454372,900.7951499361176,1024.2375378290412
1533223028.086,746.4988555828255,310.70483341154386,826.0479244110749,869.9696871007342,568.3266145149316
1533223028.09,782.693544384083,302.4551853589864,1113.7078462829093,883.6691134103265,224.83138240164442
1533223028.0939999,824.9201665609575,294.21116846550916,1351.714632598024,907.6448630909138,421.562039627705
1533223028.0979998,743.4844331687947,296.9591740966682,1328.3243264334628,892.2303780344215,677.6214240849654
1533223028.1020002,671.0950555662797,299.70717972782734,1146.1266828845892,878.5309517248293,418.44115799691644
1533223028.106,684.6692220720845,296.9591740966682,1004.142683700988,871.681238570033,384.0922743105121
1533223028.11,728.4030554559744,302.4551853589864,1307.806543496498,883.6691134103265,746.3191914577741
1533223028.1139998,757.055511127044,299.70717972782734,1549.096813793538,907.6448630909138,771.3054302518128
1533223028.1179998,758.5627223340595,296.9591740966682,1443.6345354705775,909.3564145602126,708.8494261405812
1533223028.121,693.7155778617323,299.70717972782734,1089.0863386764433,902.5067014054164,824.3859989721919
1533223028.125,671.0950555662797,305.20882214922574,880.6258657354117,888.8072750958239,736.950151316165
1533223028.129,735.9422000386069,316.20647583294226,1140.3816364293957,869.9696871007342,437.1728430308912
1533223028.133,775.1543998014505,307.9568277803848,1314.3726710498079,859.6933637297393,677.6214240849654
1533223028.137,731.4174778700052,294.21116846550916,1245.0219932436996,859.6933637297393,830.6341574830125
1533223028.141,666.570333397678,283.20788362271236,1079.6485283060774,839.1442242653508,496.5079655113343
1533223028.145,680.1444999034829,305.20882214922574,885.5498310924887,837.4291655184509,864.983041169417
1533223028.149,748.0060667898409,324.4561238854998,1134.225629219874,816.8800260540623,1096.062582081882
1533223028.1529999,799.2821333039186,321.70248709526044,1401.3677681547435,823.7297392088585,868.1039228002055
1533223028.157,782.693544384083,305.20882214922574,1373.8745777312217,837.4291655184509,821.2651173414034
1533223028.16,719.3536111187713,307.9568277803848,1081.6999704355578,808.3187614299673,758.8091132301718
1533223028.164,714.8288889501696,327.20412951665884,810.454106831187,803.1805997444699,658.8833438017472
1533223028.168,785.7079667981138,321.70248709526044,1005.3738851428923,811.7418643685648,646.3934220293495
1533223028.1720002,796.2646223423324,324.4561238854998,1311.0900274784233,825.4412906781573,637.0243818877404
1533223028.176,763.0874445026611,335.45377756921636,1376.33614020449,822.0181877395597,786.916233654999
1533223028.18,717.8463999117558,349.199436884092,1037.7918813340316,808.3187614299673,805.6543139382172
1533223028.184,649.9817444778424,338.2017832003754,678.3197191828208,806.6037026830675,599.5546165705475
1533223028.188,702.7650221989355,329.9521351478179,915.0953040560314,792.9042763734751,371.6023525381144
1533223028.1920002,764.5977442572319,338.2017832003754,1325.451803205866,791.1927249041763,608.9236567121566
1533223028.196,731.4174778700052,332.700140778977,1423.937833631729,794.6158278427739,886.8420030834237
1533223028.2,698.240300030334,324.4561238854998,1129.3016638627969,777.4897913169829,530.8568491977387
1533223028.2029998,683.1589223175138,318.9544814641014,790.3472846485508,784.3430117493801,465.2799634557185
1533223028.207,701.2578109919201,302.4551853589864,963.1071178270586,770.6400781621867,646.3934220293495
1533223028.211,728.4030554559744,280.45987799155324,1299.5999345680366,765.5054237542903,939.9289670530463
1533223028.215,755.5482999200286,296.9591740966682,1307.806543496498,772.3551369090865,1205.3573916519158
1533223028.2189999,717.8463999117558,318.9544814641014,1159.2580975806682,751.8024901670968,1205.3573916519158
1533223028.2229998,654.506466646444,288.70952604411076,870.7770946107173,743.2412255430019,821.2651173414034
1533223028.2270002,717.8463999117558,299.70717972782734,789.9363238942224,739.8146153268033,680.7423057157539
1533223028.231,781.1863331770676,329.9521351478179,1135.8669510055663,753.5175489139966,718.2184662821902
1533223028.235,787.2182665526846,338.2017832003754,1255.280884712182,765.5054237542903,968.0296922286302
1533223028.2389998,752.5307889584425,338.2017832003754,1132.5843074341817,760.3672620687929,1186.6193113686973
1533223028.242,710.304166781568,318.9544814641014,919.1990287255325,734.6764536413058,952.4188888254439
1533223028.246,751.0235777514271,305.20882214922574,841.6417419909626,738.1030638575045,708.8494261405812
1533223028.25,785.7079667981138,307.9568277803848,1149.4093264559738,763.7903650073905,621.4135784845543
1533223028.254,808.3315776411218,288.70952604411076,1330.7867293172715,753.5175489139966,724.4602295437674
1533223028.258,782.693544384083,277.7118723603942,1104.2700359125433,736.3915123882057,618.2926968537656
1533223028.262,717.8463999117558,302.4551853589864,782.9609164076652,726.1151890172108,696.3595043681835
1533223028.266,737.4524997931776,321.70248709526044,776.3947888543554,732.964902172007,914.9427282590076
1533223028.27,796.2646223423324,305.20882214922574,1084.1623733193665,750.090938697798,864.983041169417
1533223028.274,802.2996442655048,305.20882214922574,1199.0624620126932,762.0788135380917,571.4538913949636
1533223028.2779999,803.8068554725202,299.70717972782734,1072.6722804089798,768.9285266928879,549.5949294809569
1533223028.282,796.2646223423324,261.2125762552792,853.1318349013493,760.3672620687929,774.4263118826013
1533223028.285,749.5163665444117,280.45987799155324,744.7970333507918,739.8146153268033,818.1442357106149
1533223028.289,782.693544384083,283.20788362271236,1039.4332031197239,755.2291003832954,893.0837663450009
1533223028.293,856.5901331936133,283.20788362271236,1243.7907918017952,763.7903650073905,918.0700051390396
1533223028.2970002,812.8562998097234,305.20882214922574,1145.7157221302607,755.2291003832954,980.5196140010278
1533223028.301,717.8463999117558,283.20788362271236,778.8571917381641,738.1030638575045,527.7359675669502
1533223028.305,743.4844331687947,283.20788362271236,595.8376266806334,724.403637547912,527.7359675669502
1533223028.309,812.8562998097234,302.4551853589864,917.5577069398402,758.652203321893,758.8091132301718
1533223028.313,826.4273777679729,307.9568277803848,1120.684094180007,767.2169752235891,1033.6065779706503
1533223028.3170002,806.821277886551,313.4584702017832,1027.5329898655493,753.5175489139966,1127.290584137498
1533223028.321,758.5627223340595,296.9591740966682,756.6980870155071,743.2412255430019,1030.4856963398618
1533223028.325,769.1193778782781,285.96152041295164,481.7586190854232,731.2533507027082,849.3722377662308
1533223028.3279998,815.8707222237542,288.70952604411076,809.6338661436112,743.2412255430019,630.7826186261633
1533223028.332,817.3779334307696,294.21116846550916,1107.14255914014,750.090938697798,758.8091132301718
1533223028.336,767.6121666712627,283.20788362271236,959.0033931575574,738.1030638575045,777.54719351339
1533223028.34,710.304166781568,269.4622243078367,810.8650675855155,726.1151890172108,861.8621595386285
1533223028.3439999,743.4844331687947,291.4575316752698,574.9097233998808,714.1273141769173,662.0106206817792
1533223028.3479998,829.444888729559,296.9591740966682,742.3354708775237,714.1273141769173,677.6214240849654
1533223028.3520002,840.0015442737777,280.45987799155324,1108.7838809258324,741.5296740737031,1052.3446582538686
1533223028.356,778.1688222154813,305.20882214922574,1106.732438796352,753.5175489139966,1042.9756181122596
1533223028.36,717.8463999117558,316.20647583294226,801.0162964608211,698.716336398026,943.0498486838349
1533223028.3639998,689.1908556931307,294.21116846550916,479.29621620161447,673.025527970539,908.7009649974304
1533223028.367,748.0060667898409,272.2102299389958,549.4679751058392,691.8631159656288,996.1368126534572
1533223028.371,838.4912445192069,274.9638667292351,833.845253406289,734.6764536413058,914.9427282590076
1533223028.375,808.3315776411218,307.9568277803848,981.9835789783309,755.2291003832954,699.4803859989721
1533223028.379,728.4030554559744,291.4575316752698,833.4342926519605,755.2291003832954,946.1707303146234
1533223028.383,713.3216777431542,280.45987799155324,484.6311423130199,751.8024901670968,924.3117684006166
1533223028.387,763.0874445026611,285.96152041295164,543.3119678963174,734.6764536413058,768.1781533717808
1533223028.391,823.412955353942,272.2102299389958,852.3107538032328,739.8146153268033,468.40084508650705
1533223028.395,812.8562998097234,274.9638667292351,806.7613429160144,748.3793872284992,40.59704219722482
1533223028.399,740.4669222072084,288.70952604411076,671.3434712857231,750.090938697798,227.95865928167638
1533223028.4029999,711.8144665361388,283.20788362271236,540.0293243249328,732.964902172007,930.5599269114372
1533223028.407,760.0730220886303,280.45987799155324,537.9778821954525,732.964902172007,943.0498486838349
1533223028.41,830.9520999365744,318.9544814641014,867.4944510393327,755.2291003832954,855.614001027808
1533223028.414,815.8707222237542,310.70483341154386,938.8965709749212,763.7903650073905,864.983041169417
1533223028.418,752.5307889584425,269.4622243078367,677.9095988390329,746.6643284815995,677.6214240849654
1533223028.4220002,737.4524997931776,266.7142186766776,428.0017588592027,724.403637547912,761.9363901102038
1533223028.426,769.1193778782781,283.20788362271236,382.0422276281964,727.8267404865096,690.111345857363
1533223028.43,830.9520999365744,277.7118723603942,769.4185409572576,724.403637547912,512.1187689145205
1533223028.434,824.9201665609575,280.45987799155324,877.7533425078151,710.7042112383197,671.3732655741449
1533223028.438,787.2182665526846,307.9568277803848,639.7457157821596,722.6920860786132,621.4135784845543
1533223028.4420002,740.4669222072084,307.9568277803848,493.6588323395979,727.8267404865096,487.13892536972526
1533223028.446,704.2722334059509,288.70952604411076,448.5195417961674,719.2654758624146,627.6617369953748
1533223028.45,752.5307889584425,283.20788362271236,784.6022381933575,726.1151890172108,877.4729629418147
1533223028.4529998,787.2182665526846,272.2102299389958,1010.7088112542978,732.964902172007,1033.6065779706503
1533223028.457,758.5627223340595,269.4622243078367,815.3789125988045,734.6764536413058,818.1442357106149
1533223028.461,731.4174778700052,266.7142186766776,391.4800379985623,712.4157627076185,840.0031976246217
1533223028.465,729.9102666629898,261.2125762552792,242.52063132840394,698.716336398026,715.0911894021583
1533223028.4689999,760.0730220886303,288.70952604411076,718.9451647129623,722.6920860786132,771.3054302518128
1533223028.4729998,820.3954443923559,288.70952604411076,945.8719784614784,732.964902172007,1192.8610746302747
1533223028.4770002,799.2821333039186,280.45987799155324,698.0164210216691,717.5539243931158,993.0095357734255
1533223028.481,722.3711220803574,283.20788362271236,436.6193285419928,705.5660495528223,474.6490035973276
1533223028.485,755.5482999200286,288.70952604411076,325.00272383059126,710.7042112383197,665.1315023125677
1533223028.4889998,808.3315776411218,285.96152041295164,698.8375021197855,732.964902172007,902.4528064866099
1533223028.492,830.9520999365744,274.9638667292351,958.1831524699816,726.1151890172108,727.5875064237994
1533223028.496,796.2646223423324,272.2102299389958,867.4944510393327,702.1394393366236,743.1983098269856
1533223028.5,720.8608223257867,277.7118723603942,526.8979096288537,697.0012776511262,587.0646947981498
1533223028.504,752.5307889584425,294.21116846550916,282.3258361709695,710.7042112383197,421.562039627705
1533223028.508,815.8707222237542,296.9591740966682,531.4117546421427,702.1394393366236,805.6543139382172
1533223028.512,835.4768221051761,280.45987799155324,818.6615561701891,708.9891524914199,989.8886541426369
1533223028.516,840.0015442737777,299.70717972782734,760.3908509306797,714.1273141769173,974.2778507394507
1533223028.52,764.5977442572319,316.20647583294226,600.7624324482509,695.2897261818274,993.0095357734255
1533223028.524,702.7650221989355,299.70717972782734,439.0817314258015,691.8631159656288,911.8218466282191
1533223028.5279999,764.5977442572319,302.4551853589864,628.6665836261013,691.8631159656288,1049.22377662308
1533223028.532,806.821277886551,288.70952604411076,897.4500443466634,710.7042112383197,821.2651173414034
1533223028.535,784.2007555910984,280.45987799155324,913.0438619265511,717.5539243931158,802.5270370581852
1533223028.539,748.0060667898409,307.9568277803848,579.8336887569578,693.5781747125286,746.3191914577741
1533223028.543,734.4349888315915,324.4561238854998,250.31796032361808,679.8752411253352,540.2258893393478
1533223028.5470002,778.1688222154813,335.45377756921636,549.4679751058392,690.15156449633,861.8621595386285
1533223028.551,820.3954443923559,332.700140778977,931.0992419797071,700.4278878673248,943.0498486838349
1533223028.555,841.5087554807931,313.4584702017832,875.7010599677943,720.9770273317134,565.2057328841431
1533223028.559,778.1688222154813,318.9544814641014,575.7308044979973,732.964902172007,521.4878090561297
1533223028.563,716.3391887047404,329.9521351478179,410.3564991498347,727.8267404865096,930.5599269114372
1533223028.5670002,761.5802332956457,294.21116846550916,557.2644636905128,727.8267404865096,771.3054302518128
1533223028.571,814.3635110167388,285.96152041295164,902.3740097037403,751.8024901670968,452.79004168332085
1533223028.575,827.9345889749883,327.20412951665884,871.1872149545053,772.3551369090865,777.54719351339
1533223028.5779998,803.8068554725202,329.9521351478179,643.0291997640848,770.6400781621867,927.4390452806487
1533223028.582,726.895844248959,285.96152041295164,524.4355067450449,746.6643284815995,889.9628847142124
1533223028.586,690.7011554477015,241.96527451900516,565.4719130295149,707.2776010221211,927.4390452806487
1533223028.59,719.3536111187713,230.96762083528859,894.1674007752787,690.15156449633,702.6012676297606
1533223028.5939999,744.9916443758101,258.46457062412014,977.4697339650419,697.0012776511262,505.8770056529434
1533223028.5979998,728.4030554559744,266.7142186766776,767.3670988277773,702.1394393366236,796.2852737966081
1533223028.6020002,692.2083666547169,261.2125762552792,448.1094214523795,697.0012776511262,952.4188888254439
1533223028.606,701.2578109919201,280.45987799155324,445.64701856857073,708.9891524914199,1002.3785759150345
1533223028.61,785.7079667981138,285.96152041295164,900.732687918048,738.1030638575045,1002.3785759150345
1533223028.6139998,788.7254777597,288.70952604411076,1131.7640667466057,758.652203321893,1102.304345343459
1533223028.617,701.2578109919201,291.4575316752698,892.9361993333744,748.3793872284992,893.0837663450009
1533223028.621,677.1269889418967,294.21116846550916,558.4956651324172,702.1394393366236,886.8420030834237
1533223028.625,710.304166781568,294.21116846550916,495.3001541252902,702.1394393366236,914.9427282590076
1533223028.629,779.6760334224967,283.20788362271236,877.7533425078151,714.1273141769173,836.8759207445896
1533223028.633,806.821277886551,277.7118723603942,985.677183304044,698.716336398026,858.7348826585965
1533223028.637,752.5307889584425,283.20788362271236,740.2831883375029,685.0134028108326,858.7348826585965
1533223028.641,690.7011554477015,291.4575316752698,595.8376266806334,669.6024250319414,668.2523839433562
1533223028.645,702.7650221989355,280.45987799155324,517.8702196022757,662.7527118771452,499.6288471421229
1533223028.649,731.4174778700052,294.21116846550916,816.1991532863804,685.0134028108326,858.7348826585965
1533223028.6529999,743.4844331687947,299.70717972782734,979.5211760945222,688.4400130270312,830.6341574830125
1533223028.657,705.7825331605218,283.20788362271236,798.9648543313409,697.0012776511262,555.836692742534
1533223028.66,606.2479110939526,261.2125762552792,639.3355954383717,708.9891524914199,384.0922743105121
1533223028.664,616.8045666381712,285.96152041295164,583.5272930826709,707.2776010221211,649.5206989093815
1533223028.668,674.1125665278659,302.4551853589864,857.2355595708503,703.8509908059224,886.8420030834237
1533223028.6720002,684.6692220720845,274.9638667292351,1098.5249894573499,720.9770273317134,858.7348826585965
1533223028.676,642.44259989521,288.70952604411076,991.8323501030253,743.2412255430019,818.1442357106149
1533223028.68,567.0387998786642,277.7118723603942,663.9571030448374,714.1273141769173,843.1240792554103
1533223028.684,573.0707332542812,272.2102299389958,429.232960301107,708.9891524914199,733.8292696853765
1533223028.688,619.8220775997573,272.2102299389958,664.3672233886253,702.1394393366236,530.8568491977387
1533223028.6920002,627.3612221823897,255.71656499296105,975.0073310812331,697.0012776511262,558.9575743733226
1533223028.696,621.3292888067728,283.20788362271236,895.3986022171831,702.1394393366236,740.077428196197
1533223028.699,588.1521109671014,316.20647583294226,565.8820333733029,676.4521381867376,786.916233654999
1533223028.7029998,570.0532222926951,296.9591740966682,451.8030257780926,679.8752411253352,1039.8547364814708
1533223028.707,589.6593221741168,266.7142186766776,637.2841533088914,674.7405867174388,727.5875064237994
1533223028.711,642.44259989521,272.2102299389958,944.2306566757861,667.8873662850416,849.3722377662308
1533223028.715,636.410666519593,291.4575316752698,865.032048155524,679.8752411253352,952.4188888254439
1533223028.7189999,592.6737445881477,313.4584702017832,622.51141682712,678.1636896560364,774.4263118826013
1533223028.7229998,565.5285001240934,291.4575316752698,496.94231632152304,690.15156449633,612.0445383429451
1533223028.7270002,567.0387998786642,283.20788362271236,628.2564632823135,691.8631159656288,496.5079655113343
1533223028.731,640.9353886881946,327.20412951665884,975.8284121793496,715.838865646216,590.1855764289384
1533223028.735,636.410666519593,318.9544814641014,1002.5013619152957,712.4157627076185,496.5079655113343
1533223028.7389998,580.6098778369137,291.4575316752698,743.566672319428,700.4278878673248,593.306458059727
1533223028.742,588.1521109671014,296.9591740966682,385.73499154336895,705.5660495528223,752.5673499685946
1533223028.746,634.9003667650222,313.4584702017832,458.36831292086185,683.3018513415338,783.7953520242105
1533223028.75,722.3711220803574,365.6987329892069,963.9281989251749,703.8509908059224,699.4803859989721
1533223028.754,809.8387888481373,387.6940403566401,936.8442884349005,813.4534158378636,565.2057328841431
1533223028.758,695.2258776163031,307.9568277803848,695.554858548401,787.7661146879777,999.257694284246
1533223028.762,520.2874555331881,252.9629282027217,611.4314442605213,650.7648370368516,1202.2301147718838
1533223028.766,529.3368998703913,233.71562646644767,531.0016342983547,621.6509256707669,555.836692742534
1533223028.77,561.0068665030471,197.9746597841389,949.9757031309795,630.212190294862,768.1781533717808
1533223028.774,478.0608333563136,184.22336931018302,1140.3816364293957,614.8012125159707,833.7550391138011
1533223028.7779999,417.73841105258805,184.22336931018302,853.5419552451373,568.5612646240951,587.0646947981498
1533223028.782,384.56123321291676,175.97372125762553,586.3998163102675,558.2849412531003,1139.7805059098955
1533223028.785,372.49427791412734,175.97372125762553,570.8059987303798,548.0121251597066,1286.545080797122
1533223028.789,425.2775556352205,156.7264195213515,850.6694320175405,558.2849412531003,868.1039228002055
1533223028.793,449.4083776852439,140.23275457531676,924.5339548369378,573.6994263095926,705.7285445097926
1533223028.7970002,407.1817555083694,142.98076020647582,706.6339907044592,570.2728160933939,484.0180437389367
1533223028.801,378.52929983729973,137.48474894415767,629.0767039698893,573.6994263095926,718.2184662821902
1533223028.805,455.44031106086095,148.48240262787425,655.7496537058353,578.83758799509,927.4390452806487
1533223028.809,529.3368998703913,189.72501173158142,994.2939125762936,604.524889144976,1127.290584137498
1533223028.813,515.7627333645864,217.22196152041295,1164.182062937745,638.776962196558,1039.8547364814708
1533223028.8170002,509.73079998896947,197.9746597841389,965.9796410546552,657.6145501916478,799.4061554273967
1533223028.821,527.8266001158205,197.9746597841389,591.734742421673,674.7405867174388,793.1579969165762
1533223028.824,562.5140777100626,230.96762083528859,442.36437499718613,693.5781747125286,612.0445383429451
1533223028.8279998,615.2973554311558,230.96762083528859,896.6298036590874,715.838865646216,824.3859989721919
1533223028.832,651.4889556848578,233.71562646644767,1130.5328653047013,751.8024901670968,699.4803859989721
1533223028.836,607.755122300968,244.71891130924448,882.267187521104,736.3915123882057,271.6701878604464
1533223028.84,573.0707332542812,252.9629282027217,572.0372001722842,707.2776010221211,530.8568491977387
1533223028.8439999,597.1984667567493,244.71891130924448,502.68736277671644,697.0012776511262,599.5546165705475
1533223028.8479998,663.5559109836472,252.9629282027217,923.7128737388214,707.2776010221211,587.0646947981498
1533223028.8520002,687.6836444861153,255.71656499296105,1228.197814632448,708.9891524914199,1167.8812310854794
1533223028.856,643.9498111022255,244.71891130924448,1071.8520397214038,697.0012776511262,1252.1961971107178
1533223028.86,603.2304001323663,258.46457062412014,764.0844552563927,698.716336398026,846.2449608861988
1533223028.8639998,612.2798444695695,274.9638667292351,592.9651034530368,715.838865646216,930.5599269114372
1533223028.867,702.7650221989355,288.70952604411076,872.0082960526217,744.9527770123007,1055.4655398846571
1533223028.871,693.7155778617323,280.45987799155324,1144.4845206883563,751.8024901670968,1017.9957745674642
1533223028.875,636.410666519593,291.4575316752698,968.0310831841355,765.5054237542903,1011.7476160566437
1533223028.879,636.410666519593,294.21116846550916,697.1961803340932,758.652203321893,868.1039228002055
1533223028.883,662.0456112290765,241.96527451900516,519.511541387968,738.1030638575045,477.76988522811615
1533223028.887,684.6692220720845,236.46926325668701,764.4945756001807,736.3915123882057,596.4337349397589
1533223028.891,717.8463999117558,263.9605818864383,1185.5209269728261,729.5417992334094,658.8833438017472
1533223028.895,684.6692220720845,291.4575316752698,1081.2898500917697,734.6764536413058,690.111345857363
1533223028.899,665.0631221906626,307.9568277803848,839.1793391071539,738.1030638575045,840.0031976246217
1533223028.9029999,680.1444999034829,296.9591740966682,730.845377967137,736.3915123882057,543.3467709701364
1533223028.907,672.6022667732951,288.70952604411076,869.545893168813,750.090938697798,499.6288471421229
1533223028.91,725.3855444943882,272.2102299389958,1182.237442990901,751.8024901670968,393.45491920287776
1533223028.914,755.5482999200286,266.7142186766776,1208.5002723830592,767.2169752235891,546.4676526009249
1533223028.918,710.304166781568,283.20788362271236,926.1752766226301,770.6400781621867,668.2523839433562
1533223028.9220002,666.570333397678,305.20882214922574,652.0568897906627,762.0788135380917,711.9703077713697
1533223028.926,695.2258776163031,285.96152041295164,743.976792663216,791.1927249041763,549.5949294809569
1533223028.93,737.4524997931776,258.46457062412014,1017.274098397067,799.7539895282713,355.9851538856848
1533223028.934,729.9102666629898,274.9638667292351,1088.2660979888676,803.1805997444699,459.03180494489794
1533223028.938,681.6517111104984,285.96152041295164,916.7366258417237,762.0788135380917,421.562039627705
1533223028.9420002,645.4570223092409,277.7118723603942,719.7654054005382,729.5417992334094,824.3859989721919
1533223028.946,640.9353886881946,258.46457062412014,771.4708234972784,738.1030638575045,1077.324501798664
1533223028.949,708.7969555745526,247.46691694040356,1145.7157221302607,746.6643284815995,1080.4453834294525
1533223028.9529998,705.7825331605218,250.21492257156265,1085.3935747612709,753.5175489139966,846.2449608861988
1533223028.957,619.8220775997573,247.46691694040356,740.6941490918314,741.5296740737031,505.8770056529434
1533223028.961,625.8540109753743,255.71656499296105,650.0054476611825,753.5175489139966,680.7423057157539
1533223028.965,726.895844248959,266.7142186766776,661.4947001610286,743.2412255430019,612.0445383429451
1533223028.9689999,754.0410887130132,280.45987799155324,997.5773965582187,748.3793872284992,546.4676526009249
1533223028.9729998,714.8288889501696,294.21116846550916,1164.592183281533,765.5054237542903,736.950151316165
1533223028.9770002,677.1269889418967,283.20788362271236,846.9758276918275,751.8024901670968,580.8165362873293
1533223028.981,616.8045666381712,269.4622243078367,481.7586190854232,748.3793872284992,474.6490035973276
1533223028.985,639.4250889336238,285.96152041295164,492.0175105539056,751.8024901670968,337.2470736024666
1533223028.9889998,723.8783332873728,288.70952604411076,968.4420439384639,746.6643284815995,612.0445383429451
1533223028.992,754.0410887130132,280.45987799155324,1144.0744003445684,741.5296740737031,924.3117684006166
1533223028.996,701.2578109919201,307.9568277803848,908.9401372570501,751.8024901670968,708.8494261405812
1533223029.0,660.5384000220611,310.70483341154386,630.3079054117936,750.090938697798,546.4676526009249
1533223029.004,702.7650221989355,302.4551853589864,518.2803399460637,744.9527770123007,596.4337349397589
1533223029.008,755.5482999200286,291.4575316752698,846.9758276918275,777.4897913169829,540.2258893393478
1533223029.012,760.0730220886303,294.21116846550916,1058.3096642709963,791.1927249041763,933.6808085422258
1533223029.016,732.927777624576,299.70717972782734,787.0638006666256,789.4776661572764,899.3319248558214
1533223029.02,683.1589223175138,277.7118723603942,568.7545566008995,779.2048500638826,693.2322274881516
1533223029.024,684.6692220720845,280.45987799155324,446.4680996666872,763.7903650073905,1008.626734425855
1533223029.0279999,732.927777624576,296.9591740966682,697.6063006778811,755.2291003832954,811.8960771997944
1533223029.032,738.959711000193,302.4551853589864,1035.3303188607636,746.6643284815995,646.3934220293495
1533223029.035,666.570333397678,288.70952604411076,808.8127850454947,748.3793872284992,883.7211214526352
1533223029.039,659.0311888150457,285.96152041295164,579.4235684131698,734.6764536413058,1008.626734425855
1533223029.043,666.570333397678,272.2102299389958,526.8979096288537,738.1030638575045,808.7751955690057
1533223029.0470002,674.1125665278659,258.46457062412014,712.3790371596525,744.9527770123007,880.5938445726032
1533223029.051,732.927777624576,277.7118723603942,997.1664358038902,753.5175489139966,1058.5864215154456
1533223029.055,713.3216777431542,299.70717972782734,940.1269320062851,762.0788135380917,999.257694284246
1533223029.059,701.2578109919201,316.20647583294226,600.3514716939225,755.2291003832954,808.7751955690057
1533223029.063,705.7825331605218,302.4551853589864,372.193456503502,765.5054237542903,746.3191914577741
1533223029.0670002,740.4669222072084,291.4575316752698,591.3237816673445,741.5296740737031,958.6606520870208
1533223029.071,778.1688222154813,310.70483341154386,842.0518623347506,715.838865646216,677.6214240849654
1533223029.074,719.3536111187713,346.4514312529329,645.4907622373529,717.5539243931158,324.757151830069
1533223029.0779998,702.7650221989355,340.9497888315345,421.43647171643346,695.2897261818274,302.8981899160622
1533223029.082,695.2258776163031,321.70248709526044,434.1577660687246,691.8631159656288,740.077428196197
1533223029.086,725.3855444943882,310.70483341154386,639.3355954383717,691.8631159656288,1380.2226917147261
1533223029.09,743.4844331687947,310.70483341154386,915.0953040560314,705.5660495528223,1049.22377662308
1533223029.0939999,702.7650221989355,316.20647583294226,865.442168499312,722.6920860786132,655.7624621709587
1533223029.0979998,678.6372886964675,299.70717972782734,551.5194172353195,708.9891524914199,615.1654199737337
1533223029.1020002,666.570333397678,283.20788362271236,328.28536740197586,695.2897261818274,1114.7942671158569
1533223029.106,711.8144665361388,283.20788362271236,392.71123944046667,707.2776010221211,1208.4782732827043
1533223029.11,749.5163665444117,291.4575316752698,737.4106651099062,726.1151890172108,793.1579969165762
1533223029.1139998,738.959711000193,291.4575316752698,826.0479244110749,739.8146153268033,630.7826186261633
1533223029.117,704.2722334059509,285.96152041295164,478.4759755140386,708.9891524914199,696.3595043681835
1533223029.121,677.1269889418967,283.20788362271236,170.2982707052395,688.4400130270312,871.2248044309941
1533223029.125,722.3711220803574,269.4622243078367,259.755770693984,717.5539243931158,490.2598070005138
1533223029.129,809.8387888481373,258.46457062412014,785.4224788809333,724.403637547912,565.2057328841431
1533223029.133,824.9201665609575,272.2102299389958,835.0756144376528,710.7042112383197,977.398732370239
1533223029.137,743.4844331687947,280.45987799155324,430.8742820867994,712.4157627076185,914.9427282590076
1533223029.141,692.2083666547169,280.45987799155324,319.66779771918584,731.2533507027082,927.4390452806487
1533223029.145,732.927777624576,266.7142186766776,383.27342907010075,768.9285266928879,877.4729629418147
1533223029.149,803.8068554725202,285.96152041295164,684.8850063255901,744.9527770123007,627.6617369953748
1533223029.1529999,790.2326889667154,296.9591740966682,830.9727301786922,726.1151890172108,646.3934220293495
1533223029.1560001,738.959711000193,307.9568277803848,618.407692157619,729.5417992334094,864.983041169417
1533223029.16,669.5878443592643,302.4551853589864,245.3931545560006,691.8631159656288,718.2184662821902
1533223029.164,649.9817444778424,280.45987799155324,163.32202280814178,674.7405867174388,827.513275852224
1533223029.168,731.4174778700052,310.70483341154386,580.2446495112863,678.1636896560364,1089.8144235710615
1533223029.1720002,732.927777624576,318.9544814641014,773.5222656267587,691.8631159656288,1017.9957745674642
1533223029.176,665.0631221906626,296.9591740966682,510.0737310176021,683.3018513415338,958.6606520870208
1533223029.18,665.0631221906626,296.9591740966682,318.0264759334935,661.0376531302454,699.4803859989721
1533223029.184,689.1908556931307,305.20882214922574,335.26161529907347,661.0376531302454,583.9438131673613
1533223029.188,754.0410887130132,307.9568277803848,639.7457157821596,669.6024250319414,852.4931193970193
1533223029.1920002,769.1193778782781,285.96152041295164,847.386788446156,710.7042112383197,908.7009649974304
1533223029.196,755.5482999200286,277.7118723603942,663.136021946721,695.2897261818274,724.4602295437674
1533223029.199,710.304166781568,294.21116846550916,332.79921241526483,686.7284615577324,549.5949294809569
1533223029.2029998,714.8288889501696,302.4551853589864,218.31008447626675,698.716336398026,612.0445383429451
1533223029.207,776.6616110084659,307.9568277803848,536.3365604097602,700.4278878673248,805.6543139382172
1533223029.211,800.789344510934,324.4561238854998,746.0282347926963,729.5417992334094,896.2110432250327
1533223029.215,754.0410887130132,327.20412951665884,623.331657514696,717.5539243931158,939.9289670530463
1533223029.2189999,681.6517111104984,305.20882214922574,315.97503380401326,717.5539243931158,571.4538913949636
1533223029.2229998,707.2897443675372,310.70483341154386,188.35365075839556,724.403637547912,452.79004168332085
1533223029.2270002,784.2007555910984,313.4584702017832,539.6192039811448,738.1030638575045,840.0031976246217
1533223029.231,832.4593111435898,302.4551853589864,839.1793391071539,744.9527770123007,883.7211214526352
1533223029.235,799.2821333039186,313.4584702017832,598.7101499082302,729.5417992334094,805.6543139382172
1533223029.2389998,734.4349888315915,321.70248709526044,310.2299873488199,720.9770273317134,774.4263118826013
1533223029.242,741.9741334142238,327.20412951665884,279.0423521890445,708.9891524914199,996.1368126534572
1533223029.246,776.6616110084659,307.9568277803848,441.54413430961023,707.2776010221211,871.2248044309941
1533223029.25,809.8387888481373,296.9591740966682,750.5420798059852,708.9891524914199,736.950151316165
1533223029.254,784.2007555910984,324.4561238854998,715.2515603872491,705.5660495528223,943.0498486838349
1533223029.258,716.3391887047404,316.20647583294226,321.71923984866606,693.5781747125286,952.4188888254439
1533223029.262,693.7155778617323,310.70483341154386,4.103724669501052,695.2897261818274,281.0392280020555
1533223029.266,744.9916443758101,299.70717972782734,276.16982896144765,700.4278878673248,459.03180494489794
1533223029.27,803.8068554725202,310.70483341154386,814.557831500688,720.9770273317134,1142.901387540684
1533223029.274,763.0874445026611,329.9521351478179,627.025261840409,695.2897261818274,964.9088105978416
1533223029.2779999,671.0950555662797,310.70483341154386,212.5650380210733,676.4521381867376,849.3722377662308
1533223029.2810001,704.2722334059509,310.70483341154386,204.3575886820712,691.8631159656288,1021.1166561982527
1533223029.285,743.4844331687947,327.20412951665884,335.26161529907347,698.716336398026,1014.8684976874322
1533223029.289,738.959711000193,329.9521351478179,678.3197191828208,708.9891524914199,1158.5121909438703
1533223029.293,735.9422000386069,307.9568277803848,726.331532953848,726.1151890172108,1286.545080797122
1533223029.2970002,717.8463999117558,321.70248709526044,366.4484100483086,760.3672620687929,874.352081311026
1533223029.301,729.9102666629898,335.45377756921636,57.03950379760523,746.6643284815995,558.9575743733226
1533223029.305,781.1863331770676,321.70248709526044,96.43374788584234,712.4157627076185,1036.727459601439
1533223029.309,787.2182665526846,285.96152041295164,466.9858826036519,715.838865646216,1033.6065779706503
1533223029.313,758.5627223340595,280.45987799155324,544.5431693382217,712.4157627076185,587.0646947981498
1533223029.3170002,722.3711220803574,277.7118723603942,224.8753716190359,703.8509908059224,421.562039627705
1533223029.321,666.570333397678,266.7142186766776,129.67282517509804,698.716336398026,552.7158111117454
1533223029.324,707.2897443675372,302.4551853589864,247.85555743980936,697.0012776511262,711.9703077713697
1533223029.3279998,778.1688222154813,285.96152041295164,531.4117546421427,720.9770273317134,677.6214240849654
1533223029.332,775.1543998014505,263.9605818864383,619.6388935995234,727.8267404865096,527.7359675669502
1533223029.336,696.7330888233186,272.2102299389958,468.6272043893442,703.8509908059224,811.8960771997944
1533223029.34,631.8859443509914,291.4575316752698,197.79230153930195,695.2897261818274,1036.727459601439
1533223029.3439999,704.2722334059509,302.4551853589864,109.97528292570911,693.5781747125286,733.8292696853765
1533223029.3479998,766.1049554642473,283.20788362271236,482.9898205273276,708.9891524914199,836.8759207445896
1533223029.3520002,731.4174778700052,288.70952604411076,595.0173859930576,714.1273141769173,808.7751955690057
1533223029.356,705.7825331605218,299.70717972782734,249.49687922550166,707.2776010221211,546.4676526009249
1533223029.36,675.6197777348813,296.9591740966682,116.541410479019,710.7042112383197,593.306458059727
1533223029.3639998,705.7825331605218,283.20788362271236,188.76377110218334,750.090938697798,702.6012676297606
1533223029.367,778.1688222154813,266.7142186766776,469.03732473313215,779.2048500638826,508.997887283732
1533223029.371,754.0410887130132,244.71891130924448,719.7654054005382,715.838865646216,711.9703077713697
1533223029.375,671.0950555662797,252.9629282027217,581.4758509531906,669.6024250319414,1189.740192999486
1533223029.379,606.2479110939526,285.96152041295164,239.2379877570193,662.7527118771452,1011.7476160566437
1533223029.383,597.1984667567493,296.9591740966682,102.99987543915202,664.464263346444,899.3319248558214
1533223029.387,642.44259989521,261.2125762552792,342.2378631961713,685.0134028108326,740.077428196197
1533223029.391,654.506466646444,233.71562646644767,638.5153547507957,662.7527118771452,693.2322274881516
1533223029.395,556.4821443344456,255.71656499296105,559.7268665743215,647.338226820653,818.1442357106149
1533223029.399,450.91558889225934,258.46457062412014,173.58091427662413,642.2000651351556,686.9904642265744
1533223029.4029999,481.0783443178998,255.71656499296105,9.848771124694316,630.212190294862,665.1315023125677
1533223029.4060001,551.9574221658439,280.45987799155324,375.88706082921505,642.2000651351556,1174.1293895963
1533223029.41,559.4965667484764,274.9638667292351,797.7336528894365,676.4521381867376,1161.6394678239024
1533223029.414,517.2699445716019,269.4622243078367,473.55201015696167,690.15156449633,468.40084508650705
1533223029.418,488.61748890053224,299.70717972782734,111.61660471140152,673.025527970539,371.6023525381144
1533223029.4220002,491.63499986211843,302.4551853589864,195.74001899928115,673.025527970539,727.5875064237994
1533223029.426,535.3688332460083,307.9568277803848,463.2931186884793,690.15156449633,1161.6394678239024
1533223029.43,564.021288917078,280.45987799155324,778.4470713943762,691.8631159656288,1033.6065779706503
1533223029.434,499.1741444447508,269.4622243078367,691.8612542226878,681.590299872235,758.8091132301718
1533223029.438,452.42280009927475,288.70952604411076,363.9860071644999,676.4521381867376,711.9703077713697
1533223029.4420002,488.61748890053224,299.70717972782734,128.85174407698162,671.3139765012402,874.352081311026
1533223029.446,550.4502109588285,294.21116846550916,195.3298986554932,676.4521381867376,674.5005424541768
1533223029.449,557.989355541461,280.45987799155324,622.1004560727915,688.4400130270312,880.5938445726032
1533223029.4529998,517.2699445716019,305.20882214922574,719.7654054005382,695.2897261818274,921.1908867698281
1533223029.457,482.5855555249152,307.9568277803848,435.7990878544169,686.7284615577324,574.5747730257522
1533223029.461,484.0927667319306,269.4622243078367,252.36940245309833,674.7405867174388,827.513275852224
1533223029.465,491.63499986211843,252.9629282027217,366.85853039209655,674.7405867174388,908.7009649974304
1533223029.4689999,533.8616220389929,258.46457062412014,727.9728547395403,671.3139765012402,449.6691600525323
1533223029.4729998,564.021288917078,261.2125762552792,682.0124830979934,678.1636896560364,427.81019813852555
1533223029.4770002,499.1741444447508,250.21492257156265,366.4484100483086,681.590299872235,1036.727459601439
1533223029.481,453.93309985384553,252.9629282027217,243.34171242652036,691.8631159656288,821.2651173414034
1533223029.485,526.3193889088051,299.70717972782734,368.5006925883294,702.1394393366236,930.5599269114372
1533223029.4889998,585.1346000055153,302.4551853589864,756.2871262611786,715.838865646216,1096.062582081882
1533223029.492,594.1840443427185,283.20788362271236,696.3750992359768,748.3793872284992,702.6012676297606
1533223029.496,586.6418112125307,291.4575316752698,391.0699176547744,762.0788135380917,1167.8812310854794
1533223029.5,554.9718445798748,294.21116846550916,213.79623946297767,755.2291003832954,930.5599269114372
1533223029.504,616.8045666381712,277.7118723603942,282.3258361709695,744.9527770123007,424.6829212584936
1533223029.508,674.1125665278659,272.2102299389958,714.0203589453448,744.9527770123007,505.8770056529434
1533223029.512,646.9673220638116,272.2102299389958,825.2276837234989,768.9285266928879,521.4878090561297
1533223029.516,606.2479110939526,272.2102299389958,562.5993898019183,748.3793872284992,752.5673499685946
1533223029.52,568.5460110856797,291.4575316752698,311.46034838018375,708.9891524914199,964.9088105978416
1533223029.524,594.1840443427185,272.2102299389958,270.4247825062542,724.403637547912,833.7550391138011
1533223029.5279999,665.0631221906626,280.45987799155324,628.2564632823135,748.3793872284992,858.7348826585965
1533223029.5310001,651.4889556848578,294.21116846550916,833.845253406289,731.2533507027082,1139.7805059098955
1533223029.535,600.2159777183355,258.46457062412014,548.2367736639349,698.716336398026,836.8759207445896
1533223029.539,589.6593221741168,269.4622243078367,191.63629432978001,690.15156449633,833.7550391138011
1533223029.543,618.3117778451865,305.20882214922574,117.36165116659488,703.8509908059224,1121.0424256266774
1533223029.5470002,657.5239776080302,288.70952604411076,482.9898205273276,712.4157627076185,761.9363901102038
1533223029.551,663.5559109836472,291.4575316752698,833.4342926519605,720.9770273317134,949.2980071946554
1533223029.555,622.8365000137882,302.4551853589864,584.7584945245752,715.838865646216,777.54719351339
1533223029.559,567.0387998786642,302.4551853589864,190.81605364220422,686.7284615577324,590.1855764289384
1533223029.563,554.9718445798748,285.96152041295164,174.8121157185285,703.8509908059224,811.8960771997944
1533223029.5670002,613.7870556765849,222.71797278273112,507.61132813379334,714.1273141769173,583.9438131673613
1533223029.571,660.5384000220611,252.9629282027217,764.0844552563927,708.9891524914199,384.0922743105121
1533223029.574,622.8365000137882,288.70952604411076,604.4551963634235,690.15156449633,583.9438131673613
1533223029.5779998,567.0387998786642,263.9605818864383,269.6045418186784,686.7284615577324,490.2598070005138
1533223029.582,568.5460110856797,263.9605818864383,141.98315877306064,683.3018513415338,359.10603551647336
1533223029.586,631.8859443509914,266.7142186766776,397.63604520808417,686.7284615577324,861.8621595386285
1533223029.59,665.0631221906626,255.71656499296105,735.7693433242139,715.838865646216,1339.6320447667447
1533223029.5939999,615.2973554311558,261.2125762552792,652.4670101344507,722.6920860786132,1086.6935419402728
1533223029.5979998,580.6098778369137,266.7142186766776,382.0422276281964,722.6920860786132,1008.626734425855
1533223029.6020002,583.6273887984999,277.7118723603942,262.21817357779275,729.5417992334094,1217.8473134243134
1533223029.606,643.9498111022255,272.2102299389958,444.4166575372069,753.5175489139966,1055.4655398846571
1533223029.61,701.2578109919201,252.9629282027217,763.6734945020643,767.2169752235891,768.1781533717808
1533223029.613,699.7475112373494,274.9638667292351,611.0213239167333,767.2169752235891,805.6543139382172
1533223029.617,663.5559109836472,305.20882214922574,293.81508867081567,753.5175489139966,880.5938445726032
1533223029.621,651.4889556848578,307.9568277803848,243.34171242652036,726.1151890172108,727.5875064237994
1533223029.625,686.1764332790999,294.21116846550916,409.94637880604677,731.2533507027082,565.2057328841431
1533223029.629,711.8144665361388,277.7118723603942,814.9687922550165,727.8267404865096,555.836692742534
1533223029.633,707.2897443675372,294.21116846550916,775.9846685105674,734.6764536413058,939.9289670530463
1533223029.637,656.0136778534594,310.70483341154386,212.97515836486124,720.9770273317134,996.1368126534572
1533223029.641,654.506466646444,299.70717972782734,108.74492189434538,693.5781747125286,758.8091132301718
1533223029.645,722.3711220803574,296.9591740966682,536.7466807535482,719.2654758624146,768.1781533717808
1533223029.649,758.5627223340595,285.96152041295164,922.481672296917,727.8267404865096,615.1654199737337
1533223029.6529999,702.7650221989355,258.46457062412014,965.5695207108672,702.1394393366236,796.2852737966081
1533223029.6560001,666.570333397678,269.4622243078367,606.5074789034443,719.2654758624146,565.2057328841431
1533223029.66,674.1125665278659,272.2102299389958,322.1302006029944,726.1151890172108,355.9851538856848
1533223029.664,713.3216777431542,296.9591740966682,469.4482854874606,710.7042112383197,727.5875064237994
1533223029.668,769.1193778782781,307.9568277803848,805.5301414741101,722.6920860786132,705.7285445097926
1533223029.6720002,725.3855444943882,266.7142186766776,872.4184163964096,724.403637547912,677.6214240849654
1533223029.676,660.5384000220611,266.7142186766776,717.7139632710579,726.1151890172108,1158.5121909438703
1533223029.68,648.474533270827,258.46457062412014,414.46022381933574,714.1273141769173,1352.1219665391422
1533223029.684,677.1269889418967,219.96996715157204,325.4128441743792,690.15156449633,724.4602295437674
1533223029.688,732.927777624576,239.21726888784607,814.1477111569002,715.838865646216,502.74972877291145
1533223029.6920002,748.0060667898409,274.9638667292351,1016.4538577094911,758.652203321893,384.0922743105121
1533223029.696,714.8288889501696,283.20788362271236,621.6903357290037,768.9285266928879,715.0911894021583
1533223029.699,701.2578109919201,294.21116846550916,435.3881271000884,741.5296740737031,902.4528064866099
1533223029.7029998,720.8608223257867,285.96152041295164,560.9572276056854,739.8146153268033,768.1781533717808
1533223029.707,758.5627223340595,283.20788362271236,894.5775211190667,767.2169752235891,683.8695825957859
1533223029.711,794.7574111353169,294.21116846550916,1072.6722804089798,758.652203321893,562.0848512533545
1533223029.715,743.4844331687947,272.2102299389958,827.6892461967672,732.964902172007,662.0106206817792
1533223029.7189999,710.304166781568,274.9638667292351,534.6943982135273,727.8267404865096,811.8960771997944
1533223029.7229998,702.7650221989355,307.9568277803848,508.0214484775813,726.1151890172108,1011.7476160566437
1533223029.7270002,723.8783332873728,291.4575316752698,758.7495291449874,750.090938697798,930.5599269114372
1533223029.731,776.6616110084659,277.7118723603942,974.5972107374453,768.9285266928879,655.7624621709587
1533223029.735,737.4524997931776,296.9591740966682,742.3354708775237,751.8024901670968,790.0371152857875
1533223029.738,668.0806331522489,327.20412951665884,474.3722508445376,739.8146153268033,758.8091132301718
1533223029.742,687.6836444861153,285.96152041295164,572.0372001722842,744.9527770123007,608.9236567121566
1533223029.746,758.5627223340595,261.2125762552792,910.9915793865304,734.6764536413058,971.1569691086621
1533223029.75,755.5482999200286,294.21116846550916,1179.3649197633044,780.9164015331814,893.0837663450009
1533223029.754,722.3711220803574,280.45987799155324,964.7484396127509,803.1805997444699,577.6956546565408
1533223029.758,717.8463999117558,277.7118723603942,634.8217504250827,755.2291003832954,868.1039228002055
1533223029.762,680.1444999034829,269.4622243078367,495.7111148796187,734.6764536413058,899.3319248558214
1533223029.766,680.1444999034829,261.2125762552792,704.1724282311909,739.8146153268033,424.6829212584936
1533223029.77,757.055511127044,266.7142186766776,1112.066524497217,731.2533507027082,658.8833438017472
1533223029.774,772.1368888398644,266.7142186766776,881.4461064229877,734.6764536413058,914.9427282590076
1533223029.7779999,698.240300030334,291.4575316752698,506.79024703567694,726.1151890172108,1049.22377662308
1533223029.7810001,652.9992554394286,291.4575316752698,540.4394446687206,708.9891524914199,1408.3298121395535
1533223029.785,702.7650221989355,288.70952604411076,735.3592229804259,715.838865646216,1077.324501798664
1533223029.789,757.055511127044,316.20647583294226,1104.2700359125433,748.3793872284992,705.7285445097926
1533223029.793,746.4988555828255,313.4584702017832,1051.3342567844393,756.9406518525942,908.7009649974304
1533223029.7970002,699.7475112373494,296.9591740966682,684.4748859818021,741.5296740737031,993.0095357734255
1533223029.801,695.2258776163031,291.4575316752698,455.9059100370531,727.8267404865096,662.0106206817792
1533223029.805,726.895844248959,261.2125762552792,653.2880912325671,736.3915123882057,668.2523839433562
1533223029.809,785.7079667981138,277.7118723603942,1075.9549239803644,753.5175489139966,996.1368126534572
1533223029.813,769.1193778782781,299.70717972782734,1043.9478885435535,748.3793872284992,855.614001027808
1533223029.8170002,741.9741334142238,307.9568277803848,668.8810684019144,741.5296740737031,702.6012676297606
1533223029.821,725.3855444943882,316.20647583294226,360.2932432493273,736.3915123882057,443.42100154171175
1533223029.824,738.959711000193,296.9591740966682,487.09354519682864,738.1030638575045,493.38068863130235
1533223029.8279998,800.789344510934,283.20788362271236,1050.1030553425348,755.2291003832954,811.8960771997944
1533223029.832,791.7429887212861,285.96152041295164,1121.9152956219114,738.1030638575045,955.5397704562325
1533223029.836,714.8288889501696,294.21116846550916,648.3632854649496,719.2654758624146,1155.3913093130818
1533223029.84,699.7475112373494,296.9591740966682,476.42453338455834,734.6764536413058,1046.096499743048
1533223029.8439999,757.055511127044,285.96152041295164,687.7575295531867,738.1030638575045,821.2651173414034
1533223029.8479998,803.8068554725202,283.20788362271236,1089.90741977456,756.9406518525942,746.3191914577741
1533223029.8520002,788.7254777597,288.70952604411076,1150.6405278978782,770.6400781621867,755.6882315993832
1533223029.856,731.4174778700052,299.70717972782734,799.7850950189168,760.3672620687929,605.802775081368
1533223029.86,701.2578109919201,291.4575316752698,533.8741575259514,743.2412255430019,455.9109233141094
1533223029.863,749.5163665444117,285.96152041295164,622.1004560727915,739.8146153268033,740.077428196197
1533223029.867,830.9520999365744,285.96152041295164,933.9717652073037,744.9527770123007,796.2852737966081
1533223029.871,778.1688222154813,272.2102299389958,1067.338194708115,750.090938697798,758.8091132301718
1533223029.875,713.3216777431542,272.2102299389958,705.8137500168832,738.1030638575045,593.306458059727
1533223029.879,702.7650221989355,280.45987799155324,507.2012077900054,707.2776010221211,555.836692742534
1533223029.883,710.304166781568,258.46457062412014,715.2515603872491,681.590299872235,743.1983098269856
1533223029.887,769.1193778782781,258.46457062412014,1080.0586486498655,691.8631159656288,989.8886541426369
1533223029.891,776.6616110084659,266.7142186766776,1267.1810979663567,724.403637547912,1021.1166561982527
1533223029.895,692.2083666547169,277.7118723603942,913.864102614127,720.9770273317134,852.4931193970193
1533223029.899,662.0456112290765,299.70717972782734,547.8258129096064,705.5660495528223,743.1983098269856
1533223029.9029999,711.8144665361388,274.9638667292351,635.6428315231991,707.2776010221211,1036.727459601439
1533223029.9060001,748.0060667898409,258.46457062412014,975.4182918355617,715.838865646216,905.5800833666419
1533223029.91,773.6441000468798,266.7142186766776,1215.4765202801568,734.6764536413058,774.4263118826013
1533223029.914,716.3391887047404,277.7118723603942,979.9321368488506,717.5539243931158,999.257694284246
1533223029.918,701.2578109919201,277.7118723603942,541.6706461106251,697.0012776511262,515.2396505453091
1533223029.9220002,752.5307889584425,266.7142186766776,578.603327725594,693.5781747125286,596.4337349397589
1533223029.926,757.055511127044,274.9638667292351,982.8046600764474,705.5660495528223,1086.6935419402728
1533223029.93,799.2821333039186,269.4622243078367,1305.7551013670177,710.7042112383197,1127.290584137498
1533223029.934,778.1688222154813,283.20788362271236,935.2029666492082,722.6920860786132,780.6680751441785
1533223029.938,705.7825331605218,294.21116846550916,490.7863091120012,724.403637547912,587.0646947981498
1533223029.9420002,734.4349888315915,294.21116846550916,614.3039674881179,691.8631159656288,537.0986124593159
1533223029.946,790.2326889667154,299.70717972782734,940.9480131044015,700.4278878673248,633.9035002569518
1533223029.949,797.7749220969032,294.21116846550916,1278.2610705329553,708.9891524914199,899.3319248558214
1533223029.9529998,752.5307889584425,288.70952604411076,1142.022958215088,707.2776010221211,889.9628847142124
1533223029.957,717.8463999117558,266.7142186766776,769.4185409572576,698.716336398026,843.1240792554103
1533223029.961,725.3855444943882,272.2102299389958,516.6390181603714,685.0134028108326,658.8833438017472
1533223029.965,758.5627223340595,266.7142186766776,725.5104518557315,700.4278878673248,587.0646947981498
1533223029.9689999,799.2821333039186,269.4622243078367,1259.384609381683,719.2654758624146,761.9363901102038
1533223029.9729998,779.6760334224967,272.2102299389958,1127.6603420771046,697.0012776511262,830.6341574830125
1533223029.9770002,719.3536111187713,280.45987799155324,641.3878779783925,673.025527970539,918.0700051390396
1533223029.981,716.3391887047404,321.70248709526044,617.5866110595026,679.8752411253352,724.4602295437674
1533223029.985,773.6441000468798,321.70248709526044,866.2632495974284,686.7284615577324,533.9777308285272
1533223029.988,843.0159666878085,318.9544814641014,1263.488334051184,698.716336398026,871.2248044309941
1533223029.992,805.3140666795356,321.70248709526044,1222.4527681772545,703.8509908059224,821.2651173414034
1533223029.996,722.3711220803574,307.9568277803848,826.0479244110749,703.8509908059224,618.2926968537656
1533223030.0,710.304166781568,302.4551853589864,618.407692157619,700.4278878673248,574.5747730257522
1533223030.004,744.9916443758101,283.20788362271236,752.594362346006,702.1394393366236,437.1728430308912
1533223030.008,799.2821333039186,277.7118723603942,1082.1109311898863,724.403637547912,418.44115799691644
1533223030.012,806.821277886551,302.4551853589864,1112.8876055953333,724.403637547912,783.7953520242105
1533223030.016,767.6121666712627,305.20882214922574,725.92141261006,702.1394393366236,705.7285445097926
1533223030.02,755.5482999200286,285.96152041295164,604.4551963634235,710.7042112383197,380.9649974304801
1533223030.024,791.7429887212861,302.4551853589864,839.1793391071539,714.1273141769173,343.49523211328716
1533223030.0279999,830.9520999365744,318.9544814641014,1198.6523416689054,715.838865646216,324.757151830069
1533223030.0310001,820.3954443923559,318.9544814641014,1261.4368919217038,720.9770273317134,374.723234168903
1533223030.035,784.2007555910984,316.20647583294226,945.0517377739026,710.7042112383197,496.5079655113343
1533223030.039,749.5163665444117,318.9544814641014,698.4273817759976,708.9891524914199,530.8568491977387
1533223030.043,772.1368888398644,316.20647583294226,749.3117187746215,702.1394393366236,605.802775081368
1533223030.0470002,814.3635110167388,299.70717972782734,1091.1386212164643,702.1394393366236,318.51538856849186
1533223030.051,803.8068554725202,294.21116846550916,1262.2571326092796,714.1273141769173,427.81019813852555
1533223030.055,769.1193778782781,299.70717972782734,932.7405637653994,710.7042112383197,702.6012676297606
1533223030.059,729.9102666629898,296.9591740966682,586.8099366540555,686.7284615577324,861.8621595386285
1533223030.063,761.5802332956457,296.9591740966682,689.398851338879,697.0012776511262,1139.7805059098955
1533223030.0670002,809.8387888481373,288.70952604411076,1060.7720671548052,720.9770273317134,883.7211214526352
1533223030.07,799.2821333039186,307.9568277803848,1331.1968496610593,732.964902172007,765.0572717409923
1533223030.074,761.5802332956457,335.45377756921636,936.8442884349005,708.9891524914199,836.8759207445896
1533223030.0779998,704.2722334059509,316.20647583294226,599.1211106625586,705.5660495528223,1061.7136983954776
1533223030.082,743.4844331687947,305.20882214922574,802.6576182465134,719.2654758624146,1158.5121909438703
1533223030.086,766.1049554642473,305.20882214922574,1108.3737605820443,710.7042112383197,905.5800833666419
1533223030.09,741.9741334142238,327.20412951665884,1360.7431630351427,731.2533507027082,1030.4856963398618
1533223030.0939999,711.8144665361388,329.9521351478179,1148.1781250140693,722.6920860786132,1264.6861188831153
1533223030.0979998,678.6372886964675,310.70483341154386,729.6141765252326,702.1394393366236,864.983041169417
1533223030.1020002,665.0631221906626,324.4561238854998,556.8543433467249,702.1394393366236,418.44115799691644
1533223030.106,699.7475112373494,329.9521351478179,867.4944510393327,705.5660495528223,715.0911894021583
1533223030.11,699.7475112373494,321.70248709526044,1334.069372888656,720.9770273317134,1055.4655398846571
1533223030.113,621.3292888067728,310.70483341154386,1076.776005078481,722.6920860786132,827.513275852224
1533223030.117,580.6098778369137,294.21116846550916,672.1645523838395,695.2897261818274,1114.7942671158569
1533223030.121,582.1201775914844,299.70717972782734,741.9245101231952,693.5781747125286,1333.383886255924
1533223030.125,634.9003667650222,316.20647583294226,974.5972107374453,717.5539243931158,864.983041169417
1533223030.129,696.7330888233186,321.70248709526044,1387.0059924273007,717.5539243931158,933.6808085422258
1533223030.133,651.4889556848578,313.4584702017832,1286.057559117629,712.4157627076185,1108.5525038542796
1533223030.137,588.1521109671014,318.9544814641014,842.4619826785384,702.1394393366236,911.8218466282191
1533223030.141,606.2479110939526,305.20882214922574,670.1122698438187,703.8509908059224,593.306458059727
1533223030.145,622.8365000137882,305.20882214922574,942.1792145463058,708.9891524914199,730.7083880545879
1533223030.149,649.9817444778424,302.4551853589864,1224.5042103067349,714.1273141769173,643.272540398561
1533223030.1529999,633.3931555580068,288.70952604411076,1125.6080595370838,726.1151890172108,749.4464683378061
1533223030.1560001,576.085155668312,296.9591740966682,865.442168499312,720.9770273317134,1086.6935419402728
1533223030.16,553.4646333728593,285.96152041295164,721.4067271862305,700.4278878673248,727.5875064237994
1533223030.164,592.6737445881477,277.7118723603942,915.0953040560314,690.15156449633,624.5344601153428
1533223030.168,657.5239776080302,274.9638667292351,1290.9823648852464,697.0012776511262,512.1187689145205
1533223030.1720002,666.570333397678,263.9605818864383,1197.8312605707888,703.8509908059224,346.6161137440758
1533223030.176,609.2654220555387,280.45987799155324,733.3077808509457,690.15156449633,752.5673499685946
1533223030.18,607.755122300968,288.70952604411076,644.2604012059891,698.716336398026,930.5599269114372
1533223030.184,674.1125665278659,283.20788362271236,916.3265054979357,715.838865646216,612.0445383429451
1533223030.188,714.8288889501696,288.70952604411076,1339.4042990000614,722.6920860786132,964.9088105978416
1533223030.1920002,702.7650221989355,302.4551853589864,1337.7629772143691,714.1273141769173,1136.6532290298635
1533223030.195,631.8859443509914,291.4575316752698,817.4303547282848,702.1394393366236,587.0646947981498
1533223030.199,630.378733143976,283.20788362271236,581.8859712969786,703.8509908059224,533.9777308285272
1533223030.2029998,698.240300030334,307.9568277803848,841.2316216471746,710.7042112383197,765.0572717409923
1533223030.207,737.4524997931776,310.70483341154386,1273.3371051758784,715.838865646216,799.4061554273967
1533223030.211,710.304166781568,307.9568277803848,1331.1968496610593,703.8509908059224,861.8621595386285
1533223030.215,659.0311888150457,318.9544814641014,919.1990287255325,703.8509908059224,677.6214240849654
1533223030.2189999,618.3117778451865,316.20647583294226,679.1399598703966,698.716336398026,583.9438131673613
1533223030.2229998,663.5559109836472,307.9568277803848,782.1398353095487,695.2897261818274,574.5747730257522
1533223030.2270002,728.4030554559744,294.21116846550916,1157.6159353844353,702.1394393366236,583.9438131673613
1533223030.231,725.3855444943882,274.9638667292351,1350.0733108123318,700.4278878673248,868.1039228002055
1533223030.235,693.7155778617323,247.46691694040356,875.7010599677943,695.2897261818274,821.2651173414034
1533223030.238,668.0806331522489,263.9605818864383,595.0173859930576,705.5660495528223,821.2651173414034
1533223030.242,720.8608223257867,283.20788362271236,737.0005447661182,712.4157627076185,799.4061554273967
1533223030.246,787.2182665526846,277.7118723603942,1022.1989041646844,712.4157627076185,702.6012676297606
1533223030.25,744.9916443758101,291.4575316752698,1381.2609459721073,714.1273141769173,933.6808085422258
1533223030.254,716.3391887047404,294.21116846550916,1015.6327766113747,715.838865646216,1061.7136983954776
1533223030.258,716.3391887047404,305.20882214922574,579.0134480693819,719.2654758624146,758.8091132301718
1533223030.262,749.5163665444117,305.20882214922574,795.6813703494157,695.2897261818274,624.5344601153428
1533223030.266,835.4768221051761,274.9638667292351,1158.0268961387637,720.9770273317134,849.3722377662308
1533223030.27,833.9696108981607,244.71891130924448,1384.95370988728,765.5054237542903,986.7677725118483
1533223030.274,744.9916443758101,247.46691694040356,1131.3531059922773,763.7903650073905,939.9289670530463
1533223030.2779999,723.8783332873728,244.71891130924448,728.7939358376567,762.0788135380917,749.4464683378061
1533223030.2810001,763.0874445026611,219.96996715157204,679.9610409685131,756.9406518525942,665.1315023125677
1533223030.285,843.0159666878085,247.46691694040356,995.9360747725264,738.1030638575045,793.1579969165762
1533223030.289,871.6715109064336,274.9638667292351,1231.4804582038325,736.3915123882057,730.7083880545879
1533223030.293,846.0334776493947,285.96152041295164,925.3541955245137,753.5175489139966,574.5747730257522
1533223030.2970002,788.7254777597,266.7142186766776,570.8059987303798,753.5175489139966,690.111345857363
1533223030.301,766.1049554642473,252.9629282027217,721.4067271862305,717.5539243931158,702.6012676297606
1533223030.305,818.8882331853405,261.2125762552792,1087.445016890751,708.9891524914199,874.352081311026
1533223030.309,843.0159666878085,266.7142186766776,1409.1650971499578,722.6920860786132,1161.6394678239024
1533223030.313,806.821277886551,266.7142186766776,1208.9112331373876,724.403637547912,871.2248044309941
1533223030.3170002,722.3711220803574,263.9605818864383,834.6654940938648,720.9770273317134,1111.6733854850681
1533223030.32,726.895844248959,272.2102299389958,667.2397466162221,714.1273141769173,768.1781533717808
1533223030.324,812.8562998097234,280.45987799155324,867.9045713831207,722.6920860786132,349.7433906241077
1533223030.3279998,830.9520999365744,283.20788362271236,1309.4478652821904,739.8146153268033,1017.9957745674642
1533223030.332,773.6441000468798,269.4622243078367,1178.9547994195163,739.8146153268033,815.0169588305829
1533223030.336,735.9422000386069,255.71656499296105,645.4907622373529,732.964902172007,199.85153885684912
1533223030.34,722.3711220803574,263.9605818864383,507.61132813379334,741.5296740737031,290.4082681436646
1533223030.3439999,788.7254777597,261.2125762552792,870.7770946107173,744.9527770123007,527.7359675669502
1533223030.3479998,820.3954443923559,258.46457062412014,1280.313353072976,760.3672620687929,608.9236567121566
1533223030.3520002,784.2007555910984,250.21492257156265,1208.0901520392713,767.2169752235891,480.8907668589047
1533223030.356,769.1193778782781,266.7142186766776,739.0528273061391,736.3915123882057,686.9904642265744
1533223030.36,766.1049554642473,252.9629282027217,688.1684903075152,741.5296740737031,1164.7603494546909
1533223030.363,814.3635110167388,255.71656499296105,1009.8877301561813,756.9406518525942,1355.242848169931
1533223030.367,895.7992444089016,277.7118723603942,1309.4478652821904,787.7661146879777,939.9289670530463
1533223030.371,867.1467887378319,272.2102299389958,1278.6711908767434,794.6158278427739,665.1315023125677
1533223030.375,812.8562998097234,252.9629282027217,899.0913661323557,763.7903650073905,811.8960771997944
1533223030.379,799.2821333039186,247.46691694040356,681.6023627542054,765.5054237542903,805.6543139382172
1533223030.383,770.6296776328489,261.2125762552792,701.2999050035943,746.6643284815995,733.8292696853765
1533223030.387,829.444888729559,285.96152041295164,1071.0309586232875,763.7903650073905,621.4135784845543
1533223030.391,836.9840333121915,299.70717972782734,1288.9300823452256,779.2048500638826,549.5949294809569
1533223030.395,743.4844331687947,274.9638667292351,939.3066913187092,751.8024901670968,702.6012676297606
1533223030.399,748.0060667898409,291.4575316752698,723.0488893824634,732.964902172007,943.0498486838349
1533223030.4029999,797.7749220969032,302.4551853589864,779.267312081952,746.6643284815995,936.8016901730143
1533223030.4060001,805.3140666795356,283.20788362271236,1087.8559776450795,792.9042763734751,840.0031976246217
1533223030.41,799.2821333039186,261.2125762552792,1338.583217901945,794.6158278427739,815.0169588305829
1533223030.414,751.0235777514271,269.4622243078367,869.9560135126009,750.090938697798,711.9703077713697
1533223030.418,717.8463999117558,277.7118723603942,530.1805532002384,734.6764536413058,658.8833438017472
1533223030.4220002,751.0235777514271,280.45987799155324,793.2198078761475,750.090938697798,949.2980071946554
1533223030.426,811.3460000551527,283.20788362271236,1111.6564041534289,755.2291003832954,777.54719351339
1533223030.43,796.2646223423324,255.71656499296105,1223.683969619159,748.3793872284992,499.6288471421229
1533223030.434,737.4524997931776,263.9605818864383,801.4264168046091,750.090938697798,449.6691600525323
1533223030.438,711.8144665361388,274.9638667292351,508.8425295756977,708.9891524914199,677.6214240849654
1533223030.4420002,769.1193778782781,263.9605818864383,779.267312081952,707.2776010221211,999.257694284246
1533223030.445,827.9345889749883,280.45987799155324,1112.4766448410048,727.8267404865096,827.513275852224
1533223030.449,811.3460000551527,296.9591740966682,1318.4763957193088,722.6920860786132,783.7953520242105
1533223030.4529998,791.7429887212861,285.96152041295164,1048.4617335568425,727.8267404865096,774.4263118826013
1533223030.457,776.6616110084659,291.4575316752698,659.8533783753363,734.6764536413058,780.6680751441785
1533223030.461,817.3779334307696,288.70952604411076,600.7624324482509,751.8024901670968,921.1908867698281
1533223030.465,855.0798334390425,266.7142186766776,908.5300169132621,780.9164015331814,665.1315023125677
1533223030.4689999,821.9026555993713,255.71656499296105,1284.827198086265,789.4776661572764,824.3859989721919
1533223030.4729998,796.2646223423324,269.4622243078367,1082.1109311898863,780.9164015331814,1014.8684976874322
1533223030.4770002,766.1049554642473,269.4622243078367,588.0411380959599,777.4897913169829,861.8621595386285
1533223030.481,784.2007555910984,285.96152041295164,490.7863091120012,772.3551369090865,833.7550391138011
1533223030.485,850.5581998179963,283.20788362271236,862.5696452717152,768.9285266928879,702.6012676297606
1533223030.488,882.2250779030968,296.9591740966682,1267.1810979663567,777.4897913169829,577.6956546565408
1533223030.492,843.0159666878085,296.9591740966682,1042.3057263473206,763.7903650073905,658.8833438017472
1533223030.496,775.1543998014505,280.45987799155324,540.0293243249328,741.5296740737031,1039.8547364814708
1533223030.5,793.2501999283015,283.20788362271236,530.1805532002384,753.5175489139966,615.1654199737337
1533223030.504,864.1292777762458,269.4622243078367,873.2386570839856,748.3793872284992,349.7433906241077
1533223030.508,918.4197667043543,277.7118723603942,1220.4004856372337,741.5296740737031,565.2057328841431
1533223030.512,852.0654110250117,296.9591740966682,1166.2335050672255,734.6764536413058,1039.8547364814708
1533223030.516,775.1543998014505,296.9591740966682,695.1438977940724,726.1151890172108,1149.1495460515046
1533223030.52,769.1193778782781,302.4551853589864,487.09354519682864,729.5417992334094,971.1569691086621
1533223030.524,811.3460000551527,310.70483341154386,760.3908509306797,741.5296740737031,1245.9480385998972
1533223030.5270002,865.6364889832612,291.4575316752698,1104.2700359125433,744.9527770123007,1099.1834637126706
1533223030.5310001,840.0015442737777,283.20788362271236,1087.8559776450795,739.8146153268033,646.3934220293495
1533223030.535,772.1368888398644,274.9638667292351,578.1923669712654,724.403637547912,499.6288471421229
1533223030.539,738.959711000193,250.21492257156265,495.3001541252902,708.9891524914199,758.8091132301718
1533223030.543,764.5977442572319,247.46691694040356,828.5103272948835,726.1151890172108,505.8770056529434
1533223030.5470002,833.9696108981607,274.9638667292351,1199.0624620126932,743.2412255430019,596.4337349397589
1533223030.551,824.9201665609575,274.9638667292351,1246.663315029392,739.8146153268033,1008.626734425855
1533223030.555,784.2007555910984,277.7118723603942,825.6378040672869,739.8146153268033,961.7879289670531
1533223030.559,782.693544384083,283.20788362271236,589.6824598816522,727.8267404865096,886.8420030834237
1533223030.563,802.2996442655048,277.7118723603942,736.1803040785423,732.964902172007,749.4464683378061
1533223030.5670002,847.5406888564102,280.45987799155324,1073.4933615070963,746.6643284815995,487.13892536972526
1533223030.57,852.0654110250117,258.46457062412014,1157.6159353844353,762.0788135380917,736.950151316165
1533223030.574,826.4273777679729,266.7142186766776,678.7298395266088,756.9406518525942,840.0031976246217
1533223030.5779998,814.3635110167388,302.4551853589864,446.8782200104751,726.1151890172108,593.306458059727
1533223030.582,859.6045556076441,296.9591740966682,820.7129982996694,729.5417992334094,780.6680751441785
1533223030.586,888.2600998262692,283.20788362271236,1204.8075084678865,744.9527770123007,908.7009649974304
1533223030.59,824.9201665609575,272.2102299389958,1328.3243264334628,717.5539243931158,924.3117684006166
1533223030.5939999,778.1688222154813,269.4622243078367,990.601148661121,703.8509908059224,980.5196140010278
1533223030.5979998,764.5977442572319,272.2102299389958,657.3918159020682,708.9891524914199,918.0700051390396
1533223030.6020002,781.1863331770676,283.20788362271236,737.4106651099062,705.5660495528223,961.7879289670531
1533223030.606,832.4593111435898,263.9605818864383,1090.7285008726762,719.2654758624146,930.5599269114372
1533223030.61,826.4273777679729,258.46457062412014,1281.133593760552,712.4157627076185,777.54719351339
1533223030.613,766.1049554642473,294.21116846550916,1029.1743116512416,695.2897261818274,1077.324501798664
1533223030.617,752.5307889584425,310.70483341154386,620.8700950414277,705.5660495528223,1174.1293895963
1533223030.621,799.2821333039186,313.4584702017832,576.5510451855731,729.5417992334094,880.5938445726032
1533223030.625,843.0159666878085,296.9591740966682,1005.7840054866803,739.8146153268033,783.7953520242105
1533223030.629,871.6715109064336,285.96152041295164,1334.8904539867726,758.652203321893,1046.096499743048
1533223030.633,861.1148553622149,269.4622243078367,1015.2226562675867,763.7903650073905,961.7879289670531
1533223030.637,809.8387888481373,280.45987799155324,675.0370756114362,751.8024901670968,658.8833438017472
1533223030.641,793.2501999283015,291.4575316752698,721.8176879405589,762.0788135380917,558.9575743733226
1533223030.645,853.5726222320271,250.21492257156265,1034.509237762647,760.3672620687929,655.7624621709587
1533223030.649,879.210655489066,258.46457062412014,1334.8904539867726,774.0666883783853,590.1855764289384
1533223030.6520002,778.1688222154813,277.7118723603942,1018.9154201827592,774.0666883783853,421.562039627705
1533223030.6560001,692.2083666547169,269.4622243078367,544.5431693382217,738.1030638575045,515.2396505453091
1533223030.66,728.4030554559744,261.2125762552792,682.8335641961098,736.3915123882057,721.3393479129788
1533223030.664,787.2182665526846,258.46457062412014,930.6891216359192,741.5296740737031,574.5747730257522
1533223030.668,793.2501999283015,272.2102299389958,1208.9112331373876,753.5175489139966,512.1187689145205
1533223030.6720002,791.7429887212861,302.4551853589864,1161.7196600539364,753.5175489139966,899.3319248558214
1533223030.676,763.0874445026611,307.9568277803848,654.9294130182594,732.964902172007,843.1240792554103
1533223030.68,763.0874445026611,274.9638667292351,650.0054476611825,739.8146153268033,649.5206989093815
1533223030.684,811.3460000551527,272.2102299389958,1035.7404392045514,732.964902172007,686.9904642265744
1533223030.688,858.0973444006287,272.2102299389958,1313.1414696079034,727.8267404865096,702.6012676297606
1533223030.6920002,814.3635110167388,277.7118723603942,1218.3490435077535,734.6764536413058,696.3595043681835
1533223030.695,749.5163665444117,307.9568277803848,824.4066026253824,738.1030638575045,546.4676526009249
1533223030.699,758.5627223340595,299.70717972782734,709.9174746863843,734.6764536413058,749.4464683378061
1533223030.7029998,809.8387888481373,280.45987799155324,960.2345945994618,739.8146153268033,964.9088105978416
1533223030.707,826.4273777679729,294.21116846550916,1279.9023923186476,760.3672620687929,649.5206989093815
1533223030.711,790.2326889667154,288.70952604411076,1172.799632620535,755.2291003832954,434.05196140010264
1533223030.715,761.5802332956457,277.7118723603942,651.2358086925464,732.964902172007,424.6829212584936
1533223030.7189999,738.959711000193,288.70952604411076,623.331657514696,714.1273141769173,883.7211214526352
1533223030.7229998,788.7254777597,294.21116846550916,1032.8679159769547,727.8267404865096,1171.0085079655112
1533223030.7270002,858.0973444006287,310.70483341154386,1387.8262331148767,746.6643284815995,1258.4379603722948
1533223030.731,836.9840333121915,296.9591740966682,1348.4319890266395,741.5296740737031,1005.5058527950665
1533223030.735,763.0874445026611,283.20788362271236,897.0399240028754,732.964902172007,696.3595043681835
1533223030.738,737.4524997931776,305.20882214922574,693.5025760083801,722.6920860786132,880.5938445726032
1533223030.742,790.2326889667154,296.9591740966682,807.1714632598024,729.5417992334094,836.8759207445896
1533223030.746,818.8882331853405,283.20788362271236,1171.5684311786308,744.9527770123007,718.2184662821902
1533223030.75,818.8882331853405,296.9591740966682,1362.384484820835,751.8024901670968,936.8016901730143
1533223030.754,784.2007555910984,302.4551853589864,986.4974239916199,738.1030638575045,911.8218466282191
1533223030.758,755.5482999200286,291.4575316752698,578.1923669712654,727.8267404865096,662.0106206817792
1533223030.762,784.2007555910984,274.9638667292351,722.6379286281349,732.964902172007,640.1516587677723
1533223030.766,846.0334776493947,283.20788362271236,1231.0703378600447,739.8146153268033,855.614001027808
1533223030.77,856.5901331936133,302.4551853589864,1452.663065907696,753.5175489139966,1058.5864215154456
1533223030.774,784.2007555910984,302.4551853589864,904.426292243761,738.1030638575045,690.111345857363
1533223030.7770002,728.4030554559744,291.4575316752698,482.16873942921114,719.2654758624146,593.306458059727
1533223030.7810001,749.5163665444117,274.9638667292351,826.0479244110749,703.8509908059224,793.1579969165762
1533223030.785,785.7079667981138,288.70952604411076,1206.038709909791,712.4157627076185,662.0106206817792
1533223030.789,772.1368888398644,307.9568277803848,1393.161159226282,736.3915123882057,930.5599269114372
1533223030.793,711.8144665361388,316.20647583294226,1045.9993306730337,727.8267404865096,758.8091132301718
1533223030.7970002,696.7330888233186,307.9568277803848,622.51141682712,710.7042112383197,359.10603551647336
1533223030.801,716.3391887047404,283.20788362271236,671.3434712857231,703.8509908059224,674.5005424541768
1533223030.805,772.1368888398644,288.70952604411076,992.2424704468133,708.9891524914199,893.0837663450009
1533223030.809,751.0235777514271,310.70483341154386,1249.9467990113171,715.838865646216,643.272540398561
1533223030.813,665.0631221906626,313.4584702017832,1013.5813344818944,707.2776010221211,805.6543139382172
1533223030.8170002,622.8365000137882,296.9591740966682,567.1132348152072,688.4400130270312,999.257694284246
1533223030.82,637.9178777266084,296.9591740966682,700.8889442492658,681.590299872235,771.3054302518128
1533223030.824,663.5559109836472,302.4551853589864,1123.9667377513915,698.716336398026,874.352081311026
1533223030.8279998,690.7011554477015,294.21116846550916,1366.488209490336,702.1394393366236,964.9088105978416
1533223030.832,648.474533270827,285.96152041295164,1093.1900633459445,702.1394393366236,786.916233654999
1533223030.836,554.9718445798748,296.9591740966682,668.4709480581264,688.4400130270312,786.916233654999
1533223030.84,550.4502109588285,277.7118723603942,636.052951866987,686.7284615577324,833.7550391138011
1533223030.8439999,616.8045666381712,255.71656499296105,923.3027533950335,712.4157627076185,652.64158054017
1533223030.8479998,654.506466646444,258.46457062412014,1249.9467990113171,724.403637547912,749.4464683378061
1533223030.8520002,640.9353886881946,263.9605818864383,1040.2542842178404,729.5417992334094,999.257694284246
1533223030.856,591.1665333811322,283.20788362271236,575.7308044979973,712.4157627076185,1064.8345800262662
1533223030.86,577.5954554228829,263.9605818864383,582.2960916407665,714.1273141769173,1205.3573916519158
1533223030.863,652.9992554394286,255.71656499296105,938.4856102205928,719.2654758624146,1061.7136983954776
1533223030.867,699.7475112373494,283.20788362271236,1280.313353072976,738.1030638575045,949.2980071946554
1533223030.871,683.1589223175138,283.20788362271236,1147.357043915953,726.1151890172108,1008.626734425855
1533223030.875,603.2304001323663,277.7118723603942,598.7101499082302,686.7284615577324,621.4135784845543
1533223030.879,613.7870556765849,269.4622243078367,500.6350802366956,734.6764536413058,415.3138811168845
1533223030.883,686.1764332790999,252.9629282027217,877.3423817534866,739.8146153268033,793.1579969165762
1533223030.887,681.6517111104984,269.4622243078367,1207.6800316954832,724.403637547912,662.0106206817792
1533223030.891,671.0950555662797,285.96152041295164,1159.2580975806682,738.1030638575045,711.9703077713697
1533223030.895,630.378733143976,294.21116846550916,739.0528273061391,739.8146153268033,1080.4453834294525
1533223030.899,603.2304001323663,277.7118723603942,445.2368982247828,741.5296740737031,730.7083880545879
1533223030.9020002,656.0136778534594,266.7142186766776,710.7377153739602,729.5417992334094,758.8091132301718
1533223030.9060001,717.8463999117558,296.9591740966682,1190.8550126736911,736.3915123882057,886.8420030834237
1533223030.91,681.6517111104984,296.9591740966682,1252.8193222389136,738.1030638575045,783.7953520242105
1533223030.914,609.2654220555387,283.20788362271236,647.9531651211616,710.7042112383197,730.7083880545879
1533223030.918,615.2973554311558,280.45987799155324,290.5324450994311,702.1394393366236,527.7359675669502
1533223030.9220002,678.6372886964675,266.7142186766776,771.0598627429499,727.8267404865096,558.9575743733226
1533223030.926,714.8288889501696,285.96152041295164,1202.7552259278657,734.6764536413058,418.44115799691644
1533223030.93,705.7825331605218,321.70248709526044,1281.133593760552,731.2533507027082,602.675498201336
1533223030.934,656.0136778534594,310.70483341154386,920.8403505112248,727.8267404865096,861.8621595386285
1533223030.938,628.8684333894051,285.96152041295164,611.8415646043092,710.7042112383197,815.0169588305829
1533223030.9420002,672.6022667732951,269.4622243078367,736.1803040785423,726.1151890172108,655.7624621709587
1533223030.945,717.8463999117558,280.45987799155324,1048.050772802514,744.9527770123007,752.5673499685946
1533223030.949,713.3216777431542,291.4575316752698,1179.3649197633044,743.2412255430019,740.077428196197
1533223030.9529998,689.1908556931307,280.45987799155324,776.8049091981433,729.5417992334094,543.3467709701364
1533223030.957,686.1764332790999,294.21116846550916,490.7863091120012,726.1151890172108,868.1039228002055
1533223030.961,693.7155778617323,272.2102299389958,794.0400485637234,743.2412255430019,761.9363901102038
1533223030.965,738.959711000193,263.9605818864383,1159.668217924456,741.5296740737031,299.7773082852737
1533223030.9689999,763.0874445026611,296.9591740966682,1321.3489189469055,726.1151890172108,674.5005424541768
1533223030.9729998,695.2258776163031,277.7118723603942,975.8284121793496,726.1151890172108,596.4337349397589
1533223030.9770002,669.5878443592643,258.46457062412014,626.6143010860806,738.1030638575045,331.00531034088954
1533223030.981,732.927777624576,274.9638667292351,694.3236571064965,738.1030638575045,405.9512362245188
1533223030.984,805.3140666795356,291.4575316752698,1073.0824007527676,729.5417992334094,696.3595043681835
1533223030.988,805.3140666795356,266.7142186766776,1341.045620785754,731.2533507027082,1049.22377662308
1533223030.992,707.2897443675372,272.2102299389958,929.0477998502269,729.5417992334094,808.7751955690057
1533223030.996,713.3216777431542,296.9591740966682,514.997696374679,726.1151890172108,621.4135784845543
1533223031.0,758.5627223340595,280.45987799155324,628.2564632823135,726.1151890172108,443.42100154171175
1533223031.004,746.4988555828255,274.9638667292351,954.4895481442685,731.2533507027082,405.9512362245188
1533223031.008,744.9916443758101,299.70717972782734,1270.8747022920697,739.8146153268033,662.0106206817792
1533223031.012,748.0060667898409,318.9544814641014,1002.9114822590835,736.3915123882057,821.2651173414034
1533223031.016,699.7475112373494,305.20882214922574,420.2052702745291,705.5660495528223,505.8770056529434
1533223031.02,696.7330888233186,285.96152041295164,522.7941849593526,717.5539243931158,618.2926968537656
1533223031.024,793.2501999283015,283.20788362271236,964.3383192689629,741.5296740737031,996.1368126534572
1533223031.0270002,811.3460000551527,299.70717972782734,1161.7196600539364,741.5296740737031,852.4931193970193
1533223031.0310001,776.6616110084659,302.4551853589864,1011.5290519418736,741.5296740737031,1021.1166561982527
1533223031.035,702.7650221989355,277.7118723603942,625.7940603985047,729.5417992334094,1133.532347399075
1533223031.039,683.1589223175138,274.9638667292351,444.00569678287843,719.2654758624146,1158.5121909438703
1533223031.043,767.6121666712627,294.21116846550916,744.386913007004,729.5417992334094,1377.1018100839376
1533223031.0470002,826.4273777679729,294.21116846550916,1173.2097529643231,743.2412255430019,1249.0753154799293
1533223031.051,758.5627223340595,288.70952604411076,1072.262160065192,739.8146153268033,1058.5864215154456
1533223031.055,662.0456112290765,285.96152041295164,398.866406239448,729.5417992334094,680.7423057157539
1533223031.059,702.7650221989355,280.45987799155324,271.6559839481587,736.3915123882057,487.13892536972526
1533223031.063,775.1543998014505,263.9605818864383,792.3987267780311,736.3915123882057,761.9363901102038
1533223031.0670002,761.5802332956457,258.46457062412014,1187.1622487585184,734.6764536413058,1242.8271569691085
1533223031.07,701.2578109919201,258.46457062412014,1058.7206250253248,726.1151890172108,811.8960771997944
1533223031.074,705.7825331605218,269.4622243078367,580.2446495112863,715.838865646216,490.2598070005138
1533223031.0779998,725.3855444943882,294.21116846550916,437.44040964010924,708.9891524914199,786.916233654999
1533223031.082,767.6121666712627,296.9591740966682,640.156676536488,714.1273141769173,846.2449608861988
1533223031.086,812.8562998097234,291.4575316752698,937.2544087786883,739.8146153268033,986.7677725118483
1533223031.09,817.3779334307696,318.9544814641014,1002.5013619152957,729.5417992334094,983.6468908810598
1533223031.0939999,743.4844331687947,324.4561238854998,665.1883044867418,705.5660495528223,974.2778507394507
1533223031.0979998,680.1444999034829,294.21116846550916,398.866406239448,726.1151890172108,646.3934220293495
1533223031.1020002,732.927777624576,274.9638667292351,641.7979983221804,727.8267404865096,733.8292696853765
1533223031.106,802.2996442655048,299.70717972782734,1026.301788423645,720.9770273317134,880.5938445726032
1533223031.109,772.1368888398644,307.9568277803848,1083.3412922212501,710.7042112383197,705.7285445097926
1533223031.113,692.2083666547169,296.9591740966682,662.3157812591451,686.7284615577324,811.8960771997944
1533223031.117,692.2083666547169,288.70952604411076,373.42465794540635,681.590299872235,1049.22377662308
1533223031.121,722.3711220803574,266.7142186766776,585.9896959664796,686.7284615577324,1164.7603494546909
1533223031.125,784.2007555910984,277.7118723603942,945.0517377739026,722.6920860786132,1086.6935419402728
1533223031.129,770.6296776328489,255.71656499296105,1075.5448036365765,732.964902172007,1005.5058527950665
1533223031.133,683.1589223175138,250.21492257156265,583.1171727388829,702.1394393366236,780.6680751441785
1533223031.137,677.1269889418967,277.7118723603942,16.825019021792144,691.8631159656288,537.0986124593159
1533223031.141,723.8783332873728,285.96152041295164,322.1302006029944,722.6920860786132,608.9236567121566
1533223031.145,760.0730220886303,280.45987799155324,1013.5813344818944,748.3793872284992,911.8218466282191
1533223031.149,746.4988555828255,277.7118723603942,1218.7591638515414,734.6764536413058,989.8886541426369
1533223031.1520002,729.9102666629898,288.70952604411076,812.5063893712079,724.403637547912,690.111345857363
1533223031.1560001,725.3855444943882,272.2102299389958,441.54413430961023,738.1030638575045,908.7009649974304
1533223031.16,743.4844331687947,283.20788362271236,514.1766152765626,738.1030638575045,874.352081311026
1533223031.164,791.7429887212861,283.20788362271236,830.9727301786922,738.1030638575045,443.42100154171175
1533223031.168,805.3140666795356,272.2102299389958,1083.3412922212501,772.3551369090865,496.5079655113343
1533223031.1720002,766.1049554642473,261.2125762552792,843.2830637766549,784.3430117493801,961.7879289670531
1533223031.176,726.895844248959,244.71891130924448,434.1577660687246,760.3672620687929,974.2778507394507
1533223031.18,776.6616110084659,277.7118723603942,385.73499154336895,765.5054237542903,855.614001027808
1533223031.184,833.9696108981607,266.7142186766776,717.30384292727,782.6279530024802,612.0445383429451
1533223031.188,850.5581998179963,244.71891130924448,1129.3016638627969,791.1927249041763,512.1187689145205
1533223031.1920002,791.7429887212861,261.2125762552792,919.1990287255325,770.6400781621867,658.8833438017472
1533223031.195,725.3855444943882,272.2102299389958,332.79921241526483,739.8146153268033,590.1855764289384
