timestamps,TP9,AF7,AF8,TP10,Right AUX
1533223080.516,1413.2453245324532,185.09537115781802,512.7958945586718,1289.5151219944205,836.4653948421405
1533223080.52,1373.5151628370384,313.215891143239,792.1505148660405,1280.4392684762875,998.8187004672535
1533223080.524,1322.4401685451564,441.365569189649,456.3714318468417,1253.1931098614002,1019.9974184887833
1533223080.5279999,1197.5656433567885,384.41987607824086,30.97822524630625,1298.5909755125538,571.7603324986447
1533223080.5310001,1277.0259667476182,256.27019803183094,0.0,1189.6249391134925,208.23089036321863
1533223080.535,1367.842746538805,284.7576236180294,286.5463177131451,1098.8106097506975,77.6456617704004
1533223080.539,1407.5729082342195,270.52848985542465,542.667269085784,1098.8106097506975,250.58832640627824
1533223080.543,1271.3535504493846,227.81193050662134,434.79747253710616,1126.0567683655847,825.8832640627824
1533223080.5470002,1101.0880710712581,270.52848985542465,227.9092864705208,1216.8710977283797,1034.114154426001
1533223080.551,1152.16306536314,398.6490098408456,250.03610468605646,1044.3182925209228,843.5273769264527
1533223080.555,1220.2669323536127,569.4860891750699,315.8648333344573,790.0642075897799,829.410640989235
1533223080.559,1379.187579135272,555.2569554124651,605.1765784841966,980.750121773015,769.4090920825051
1533223080.563,1237.2958050522034,569.4860891750699,675.9833030999858,1017.0907319665234,624.7071275524692
1533223080.5670002,1055.67386927372,654.9192078726766,289.8657369631333,853.6137802771997,702.3527893228696
1533223080.571,1169.1919380617308,455.5947029522537,259.44037062262726,889.9543904707081,988.2365696878953
1533223080.574,1305.4112958465657,412.8781436034505,565.3480791147136,1007.9962803879024,1132.9385342179312
1533223080.5779998,1339.4574174398572,484.08212853845225,896.7008921647301,1071.56445113581,1207.0568190618787
1533223080.582,1214.594516055379,185.09537115781802,647.2176463844738,1007.9962803879024,1302.3538219273562
1533223080.586,1004.5988749818378,0.0,137.74117107579002,944.4281096399947,949.4065105712884
1533223080.59,1106.7604873694916,170.86623739521323,127.78404623341943,962.5984147367489,836.4653948421405
1533223080.5939999,1350.8138738402142,256.27019803183094,444.20173847367676,899.0302439888411,755.2923561452875
1533223080.5979998,1418.9177408306869,227.81193050662134,904.9983073821068,862.7082318558207,840.0
1533223080.6020002,1294.0548394462087,170.86623739521323,873.4672232300005,980.750121773015,829.410640989235
1533223080.606,1186.2208107603212,227.81193050662134,396.6286827926172,1035.2424390027898,649.4132225004518
1533223080.61,1180.5483944620878,341.7033167294375,335.22622411339876,880.8599388920869,815.2939050520174
1533223080.6139998,1186.2208107603212,227.81193050662134,392.75640463682896,826.3862197228003,589.4116735937217
1533223080.617,1305.4112958465657,227.81193050662134,659.3884726652326,835.4620732409335,550.5888427085216
1533223080.621,1214.594516055379,284.7576236180294,953.1253548765603,808.2159146260461,765.8817151560523
1533223080.625,970.5411295846566,199.3245049204228,602.9640099534024,780.9697560111589,931.762397707618
1533223080.629,964.868713286423,256.27019803183094,312.54541408446914,826.3862197228003,829.410640989235
1533223080.633,1174.8643543599644,370.1615842546471,397.73553351181124,862.7082318558207,779.99845109327
1533223080.637,1237.2958050522034,412.8781436034505,746.237168809975,917.1819510251074,709.4075431757751
1533223080.641,1163.519521763497,427.13643542704415,1042.186619552097,944.4281096399947,476.47055786457395
1533223080.645,1055.67386927372,484.08212853845225,741.8108988407928,744.6477438781384,765.8817151560523
1533223080.649,1078.375158270544,484.08212853845225,463.010270346818,708.325731745118,995.2913235408008
1533223080.6529999,1282.7100068497416,526.7986878872556,697.0044035039214,844.5379267590665,1087.053721248419
1533223080.657,1311.0837121447994,597.9735147612685,1117.9724730428684,935.3522561218616,1210.5841959883317
1533223080.66,1305.4112958465657,541.0278216498604,1242.4371000262997,998.9204268697692,1312.9359527067145
1533223080.664,1203.249683458912,526.7986878872556,773.343115900493,862.7082318558207,931.762397707618
1533223080.668,1072.7027419723104,669.1483416352813,479.0522418757712,735.5718903600053,645.8786173425924
1533223080.6720002,1265.681134151151,626.4609403474669,640.0270818862912,817.2917681441793,935.2897746340708
1533223080.676,1345.1414575419806,498.31126230105707,877.8934931991827,817.2917681441793,638.8238634896869
1533223080.68,1248.6522614525604,512.5403960636619,1018.9529506173672,826.3862197228003,539.9994836977567
1533223080.684,1146.4906490649064,526.7986878872556,891.7228961973417,880.8599388920869,1104.705062343496
1533223080.688,1112.4329036677252,541.0278216498604,679.8555812557742,762.8180489748926,1016.4700415623306
1533223080.6920002,1242.9798451543268,541.0278216498604,690.9195568173388,699.249878226985,547.0542375506622
1533223080.696,1339.4574174398572,583.7443809986637,857.9792435144412,799.1400611079131,815.2939050520174
1533223080.7,1271.3535504493846,555.2569554124651,1149.5035571949747,871.7840853739539,688.236053385652
1533223080.7029998,1095.4040309691347,541.0278216498604,974.1464552804957,899.0302439888411,218.8202493739836
1533223080.707,970.5411295846566,569.4860891750699,680.9624319749681,926.2764026037285,515.2933887497741
1533223080.711,1129.461776366316,555.2569554124651,846.9152679528764,935.3522561218616,907.0563027596355
1533223080.715,1259.9970940490275,626.4609403474669,1120.7379004794627,926.2764026037285,614.1177685417043
1533223080.7189999,1282.7100068497416,768.8105940954928,1433.2833145639318,962.5984147367489,832.9380179156879
1533223080.7229998,1129.461776366316,654.9192078726766,1094.7388041081388,935.3522561218616,1104.705062343496
1533223080.7270002,902.437262594184,541.0278216498604,676.536162005786,826.3862197228003,1079.9989673955133
1533223080.731,981.8975859850136,526.7986878872556,879.5532028241768,817.2917681441793,935.2897746340708
1533223080.735,1118.1053199659589,498.31126230105707,1004.017829807608,862.7082318558207,896.4669437488706
1533223080.7389998,1163.519521763497,612.2026485238732,1214.7782940299817,880.8599388920869,850.589359010765
1533223080.7429998,993.2424185814808,683.406633458875,1303.2866997997182,862.7082318558207,670.5847122905749
1533223080.746,788.9191938061731,569.4860891750699,951.4656452515662,780.9697560111589,832.9380179156879
1533223080.75,942.1674242895988,597.9735147612685,922.147129630254,699.249878226985,945.8791336448356
1533223080.754,1191.8932270585549,683.406633458875,1230.2674066531347,753.7235973962715,949.4065105712884
1533223080.758,1248.6522614525604,726.1231928076784,1462.0489712794438,862.7082318558207,677.646694374887
1533223080.762,1061.3579093758433,697.6357672214799,1250.7345152436762,817.2917681441793,402.3522730206263
1533223080.766,970.5411295846566,697.6357672214799,918.8277103802658,799.1400611079131,476.47055786457395
1533223080.77,1044.3290366772526,740.3523265702833,823.6815990181467,835.4620732409335,607.0557864573922
1533223080.774,1197.5656433567885,697.6357672214799,1120.7379004794627,889.9543904707081,882.3502078116529
1533223080.7779999,1305.4112958465657,697.6357672214799,1585.960739357075,817.2917681441793,1083.526344321966
1533223080.782,1220.2669323536127,783.0688859190866,1504.0900391797209,835.4620732409335,741.1756202080699
1533223080.786,1067.030325674077,797.2980196816912,1057.67573217525,962.5984147367489,772.9364690089578
1533223080.789,1123.7893600680823,882.7311383792979,934.3168230034189,989.8445733516362,451.76446291659136
1533223080.793,1345.1414575419806,968.1350990159156,1052.6977362078617,889.9543904707081,455.2918398430441
1533223080.7970002,1396.2164518338627,783.0688859190866,1352.5194651057718,944.4281096399947,1009.4080594780185
1533223080.801,1220.2669323536127,669.1483416352813,1541.7059700184097,1080.6589027144312,832.9380179156879
1533223080.805,1055.67386927372,711.8649009840847,1218.6505721857698,998.9204268697692,1087.053721248419
1533223080.809,1067.030325674077,740.3523265702833,1036.6546317713146,953.5225612186158,1242.3522730206262
1533223080.813,1186.2208107603212,768.8105940954928,1201.5017499376227,1017.0907319665234,1203.529442135426
1533223080.8170002,1186.2208107603212,783.0688859190866,1437.15559271972,1071.56445113581,1154.1172522394609
1533223080.821,1032.9725802768955,683.406633458875,1399.5396618810312,1098.8106097506975,1034.114154426001
1533223080.825,936.4833841874754,583.7443809986637,1084.2288203599678,944.4281096399947,1115.2944213542607
1533223080.829,1027.300163978662,711.8649009840847,1021.7195109615553,871.7840853739539,1062.3476263004363
1533223080.832,1163.519521763497,797.2980196816912,1142.3118597891983,871.7840853739539,1009.4080594780185
1533223080.836,1186.2208107603212,840.0145790304946,1409.496786723402,826.3862197228003,843.5273769264527
1533223080.84,1072.7027419723104,797.2980196816912,1516.259732552886,808.2159146260461,254.11570333273093
1533223080.8439999,879.7359735973597,683.406633458875,1155.5884038815573,717.4015852632511,395.29029093631414
1533223080.8479998,891.0808061938269,697.6357672214799,969.7201853113136,699.249878226985,889.4121898959651
1533223080.8520002,1038.656620379019,697.6357672214799,1059.8883007060442,735.5718903600053,938.8243797919301
1533223080.856,1157.8354816613737,669.1483416352813,1226.3951284973464,726.4960368418722,850.589359010765
1533223080.86,1259.9970940490275,783.0688859190866,1473.1118139334146,799.1400611079131,727.0588842708521
1533223080.8639998,1101.0880710712581,811.527153444296,1166.6512465355281,808.2159146260461,804.7045460412526
1533223080.8679998,936.4833841874754,683.406633458875,804.8742000525992,762.8180489748926,857.6441128636704
1533223080.8720002,1061.3579093758433,697.6357672214799,1028.910075459738,780.9697560111589,779.99845109327
1533223080.875,1208.9220997571456,640.6900741100718,1206.480878812605,880.8599388920869,931.762397707618
1533223080.879,1186.2208107603212,626.4609403474669,1423.879048627361,717.4015852632511,981.1745876035832
1533223080.883,1095.4040309691347,754.581460332888,1333.1580743268303,626.5872559004561,804.7045460412526
1533223080.887,993.2424185814808,711.8649009840847,908.317726632095,653.8334145153434,469.40857578026174
1533223080.891,1038.656620379019,711.8649009840847,949.253076720772,635.6817074790772,430.58574489506157
1533223080.895,1231.6233887539697,783.0688859190866,1284.4781679265768,844.5379267590665,589.4116735937217
1533223080.899,1288.3824231479753,768.8105940954928,1511.8345954912975,799.1400611079131,758.8197330717402
1533223080.9029999,1214.594516055379,754.581460332888,1246.3093781820878,626.5872559004561,907.0563027596355
1533223080.907,1129.461776366316,882.7311383792979,815.9370427065702,690.1554266483638,762.3543382295996
1533223080.911,1225.950972455736,783.0688859190866,811.5119056449819,726.4960368418722,1094.115703332731
1533223080.915,1407.5729082342195,754.581460332888,887.8506180415534,790.0642075897799,705.8801662493223
1533223080.918,1509.7345206218736,911.1894059045073,1200.9488910318225,917.1819510251074,659.99535327981
1533223080.9220002,1277.0259667476182,754.581460332888,1295.5421434881416,862.7082318558207,628.234504478922
1533223080.926,1129.461776366316,754.581460332888,886.7437673223594,790.0642075897799,522.3481426026796
1533223080.93,1242.9798451543268,882.7311383792979,826.447026454741,735.5718903600053,935.2897746340708
1533223080.934,1220.2669323536127,768.8105940954928,1126.8227471660452,862.7082318558207,847.0547538529055
1533223080.938,1101.0880710712581,783.0688859190866,1470.8992454026206,889.9543904707081,1094.115703332731
1533223080.9420002,936.4833841874754,854.2437127930993,1320.4355220478653,735.5718903600053,1440.0010326044867
1533223080.946,902.437262594184,711.8649009840847,810.4050549257878,690.1554266483638,1129.4111572914785
1533223080.95,1015.943707578305,654.9192078726766,704.194968002104,699.249878226985,931.762397707618
1533223080.954,1072.7027419723104,626.4609403474669,971.3798949363077,790.0642075897799,903.5289258331827
1533223080.958,1061.3579093758433,526.7986878872556,1090.3136670465503,835.4620732409335,430.58574489506157
1533223080.961,879.7359735973597,754.581460332888,966.4018989689192,799.1400611079131,476.47055786457395
1533223080.965,618.6537144280466,896.9602721419027,685.3875690365566,699.249878226985,547.0542375506622
1533223080.9689999,573.2395126305083,768.8105940954928,671.5581660383975,699.249878226985,554.1162196349743
1533223080.9729998,686.7575814185192,783.0688859190866,874.5740739491945,735.5718903600053,815.2939050520174
1533223080.9770002,732.1601594121677,740.3523265702833,1111.333634542892,744.6477438781384,645.8786173425924
1533223080.981,533.5093509350935,569.4860891750699,1176.0555124720988,708.325731745118,744.7029971345225
1533223080.985,351.88741515661,469.82383671485854,676.536162005786,717.4015852632511,871.7608488008881
1533223080.9889998,368.9162878552006,569.4860891750699,482.3716611257595,826.3862197228003,949.4065105712884
1533223080.9929998,550.5382236336841,697.6357672214799,725.7689273118395,771.8939024930257,1030.5867774995481
1533223080.9970002,726.487743113934,669.1483416352813,929.3388270360305,799.1400611079131,995.2913235408008
1533223081.0010002,454.06065134815367,640.6900741100718,1111.8876263562859,799.1400611079131,977.6472106771304
1533223081.004,192.97839217884052,783.0688859190866,609.6017155457849,635.6817074790772,561.1782017192864
1533223081.008,312.168877265085,797.2980196816912,364.5447397347108,608.4355488641899,557.6435965614271
1533223081.012,471.07790024285447,783.0688859190866,739.0454714041985,617.511402382323,889.4121898959651
1533223081.016,442.7041949477967,711.8649009840847,867.936368356812,544.8673781162821,758.8197330717402
1533223081.02,312.168877265085,669.1483416352813,1044.953179896285,581.1893902493026,772.9364690089578
1533223081.024,221.35209747389834,697.6357672214799,885.0840576973653,635.6817074790772,938.8243797919301
1533223081.0279999,164.5930630798929,654.9192078726766,562.0286598647255,662.9278660939644,783.5258280197228
1533223081.032,351.88741515661,726.1231928076784,658.8344808518386,717.4015852632511,649.4132225004518
1533223081.036,567.5670963322748,868.472846555704,978.5715923420842,644.7575609972102,674.1193174484343
1533223081.04,550.5382236336841,740.3523265702833,1112.993344167886,699.249878226985,744.7029971345225
1533223081.044,414.33048965273883,683.406633458875,733.5134836234162,790.0642075897799,963.5304747399127
1533223081.0470002,437.0317786495631,797.2980196816912,492.32878596813015,690.1554266483638,1203.529442135426
1533223081.051,516.4921020403928,711.8649009840847,541.00755946079,672.0037196120976,861.1714897901231
1533223081.055,641.3550034248708,640.6900741100718,684.2807183173625,708.325731745118,603.5284095309394
1533223081.059,766.2179048093489,740.3523265702833,997.9329831210256,780.9697560111589,674.1193174484343
1533223081.063,675.412748822052,683.406633458875,975.805031997896,862.7082318558207,942.351756718383
1533223081.0670002,550.5382236336841,541.0278216498604,644.4522189478795,880.8599388920869,1111.7598161964013
1533223081.071,635.6825871266371,669.1483416352813,684.2807183173625,935.3522561218616,903.5289258331827
1533223081.075,754.8614484089918,754.581460332888,1008.9958257749964,1062.488597617677,1259.9963858842966
1533223081.079,737.8441995142911,640.6900741100718,1169.9706657855163,1107.8864632688305,1062.3476263004363
1533223081.083,743.5166158125246,683.406633458875,973.5924634671019,1216.8710977283797,1168.2339881766786
1533223081.0870001,669.7287087199286,726.1231928076784,579.7303410186728,1180.5490855953594,1136.4659111443839
1533223081.09,726.487743113934,626.4609403474669,574.7523450512844,1062.488597617677,712.9421483336345
1533223081.0939999,947.8398405878323,626.4609403474669,864.6169491068238,1280.4392684762875,532.9375016134445
1533223081.0979998,1032.9725802768955,683.406633458875,1029.4640672731318,1344.0074392241952,684.7014482277925
1533223081.1020002,896.7532224920606,640.6900741100718,834.7455745797115,1162.3787804986052,952.9411157291479
1533223081.106,715.131286713577,612.2026485238732,469.64797593920065,1035.2424390027898,822.3486589049229
1533223081.11,794.5916101044066,683.406633458875,680.4084401615742,953.5225612186158,928.2350207811653
1533223081.1139998,964.868713286423,711.8649009840847,872.3615054184003,917.1819510251074,723.5242791129928
1533223081.1179998,1061.3579093758433,669.1483416352813,956.4447741265485,953.5225612186158,600.0010326044867
1533223081.1220002,1061.3579093758433,669.1483416352813,1090.3136670465503,980.750121773015,554.1162196349743
1533223081.1260002,1044.3290366772526,740.3523265702833,789.3850874294461,889.9543904707081,712.9421483336345
1533223081.13,1050.0014529754862,768.8105940954928,715.8118024694688,889.9543904707081,790.5878101040349
1533223081.1339998,1095.4040309691347,740.3523265702833,1041.0809017404968,971.674268254882,1284.7024808322792
1533223081.137,1140.818232766673,754.581460332888,1282.2655993957826,953.5225612186158,1097.6430802591838
1533223081.141,1135.1341926645496,968.1350990159156,1171.6303754105104,853.6137802771997,924.7004156233058
1533223081.145,998.9264586836042,996.6225246021141,638.9202311670971,771.8939024930257,1048.2308903632186
1533223081.149,998.9264586836042,811.527153444296,583.602619174461,726.4960368418722,1016.4700415623306
1533223081.1529999,1169.1919380617308,697.6357672214799,900.0203114147183,790.0642075897799,977.6472106771304
1533223081.157,1225.950972455736,740.3523265702833,1008.4429668691964,853.6137802771997,741.1756202080699
1533223081.161,1135.1341926645496,768.8105940954928,1184.3529276894753,835.4620732409335,737.648243281617
1533223081.165,987.5700022832472,754.581460332888,944.8279396591836,835.4620732409335,744.7029971345225
1533223081.169,998.9264586836042,882.7311383792979,788.8310956160523,844.5379267590665,885.8775847381057
1533223081.1729999,1106.7604873694916,982.3933908395093,945.9336574707838,817.2917681441793,607.0557864573922
1533223081.177,1010.2712912800714,768.8105940954928,1292.7767160515473,844.5379267590665,822.3486589049229
1533223081.18,976.2135458828902,697.6357672214799,1343.115199169201,889.9543904707081,790.5878101040349
1533223081.184,942.1674242895988,654.9192078726766,913.2968555070773,880.8599388920869,571.7603324986447
1533223081.188,845.6782282001785,597.9735147612685,796.5756519276288,826.3862197228003,1108.2324392699486
1533223081.1920002,1078.375158270544,726.1231928076784,911.0842869762831,862.7082318558207,1182.3507241138964
1533223081.196,1350.8138738402142,797.2980196816912,1096.3985137331329,889.9543904707081,645.8786173425924
1533223081.2,1259.9970940490275,825.7854452678899,1325.4135180152539,817.2917681441793,642.3512404161396
1533223081.204,1015.943707578305,768.8105940954928,1061.5480103310383,862.7082318558207,698.8181841650102
1533223081.208,1084.0591983726674,783.0688859190866,807.0867685833935,926.2764026037285,659.99535327981
1533223081.2120001,1259.9970940490275,854.2437127930993,958.1033508439488,1017.0907319665234,677.646694374887
1533223081.216,1373.5151628370384,811.527153444296,1133.4615856660216,1071.56445113581,794.1151870304876
1533223081.22,1282.7100068497416,882.7311383792979,1371.8808558847131,1116.9809148474517,1005.8806825515657
1533223081.2229998,1095.4040309691347,896.9602721419027,1181.034641347081,1053.412744099544,709.4075431757751
1533223081.2270002,1038.656620379019,825.7854452678899,845.8084172336825,980.750121773015,607.0557864573922
1533223081.231,1220.2669323536127,968.1350990159156,1036.6546317713146,1062.488597617677,963.5304747399127
1533223081.235,1356.4862901384479,982.3933908395093,1319.3286713286714,1071.56445113581,698.8181841650102
1533223081.2389998,1299.7272557444423,854.2437127930993,1366.9017270097308,1126.0567683655847,642.3512404161396
1533223081.2429998,1118.1053199659589,896.9602721419027,1051.0380265828674,1098.8106097506975,804.7045460412526
1533223081.2470002,1004.5988749818378,982.3933908395093,876.2337835741886,1007.9962803879024,1115.2944213542607
1533223081.2510002,1135.1341926645496,1067.797351476127,1083.1219696407738,953.5225612186158,847.0547538529055
1533223081.255,1231.6233887539697,996.6225246021141,1151.1632668199688,971.674268254882,374.118801146191
1533223081.2589998,1259.9970940490275,854.2437127930993,1279.5001719591883,1017.0907319665234,674.1193174484343
1533223081.2629998,1101.0880710712581,840.0145790304946,1348.6471869499835,1044.3182925209228,829.410640989235
1533223081.266,1072.7027419723104,982.3933908395093,1004.017829807608,944.4281096399947,836.4653948421405
1533223081.27,1163.519521763497,1025.0807921273238,958.1033508439488,844.5379267590665,628.234504478922
1533223081.274,1157.8354816613737,896.9602721419027,1357.4974610731601,917.1819510251074,878.8228308852002
1533223081.2779999,1123.7893600680823,840.0145790304946,1603.6624205110222,971.674268254882,917.6456617704004
1533223081.282,1027.300163978662,854.2437127930993,1341.455489544207,926.2764026037285,719.99690218654
1533223081.286,947.8398405878323,825.7854452678899,808.7464782083875,762.8180489748926,603.5284095309394
1533223081.29,1072.7027419723104,882.7311383792979,766.7042774005165,699.249878226985,257.6430802591837
1533223081.294,1271.3535504493846,911.1894059045073,1263.4582004302351,672.0037196120976,815.2939050520174
1533223081.2979999,1231.6233887539697,953.9059652533107,1625.2363798207577,708.325731745118,1379.9994836977567
1533223081.302,1015.943707578305,953.9059652533107,1479.1966606199971,708.325731745118,1274.1131218215144
1533223081.306,1015.943707578305,968.1350990159156,960.8699111881368,653.8334145153434,787.0604331775821
1533223081.309,1118.1053199659589,1010.8516583647189,967.5076167805194,672.0037196120976,783.5258280197228
1533223081.313,1152.16306536314,925.4185396671122,1148.949565381581,590.2652437674357,825.8832640627824
1533223081.3170002,1169.1919380617308,854.2437127930993,1251.2873741494764,644.7575609972102,748.2303740609754
1533223081.321,1032.9725802768955,854.2437127930993,1358.604311792354,662.9278660939644,695.2908072385575
1533223081.325,942.1674242895988,896.9602721419027,967.5076167805194,608.4355488641899,674.1193174484343
1533223081.329,1061.3579093758433,996.6225246021141,876.7866424799887,717.4015852632511,776.4710741668173
1533223081.333,1191.8932270585549,1082.0556432997207,1109.1210660120978,699.249878226985,801.1771691147998
1533223081.3370001,1294.0548394462087,1153.2304701737337,1262.3513497110412,690.1554266483638,1076.4715904690606
1533223081.341,1180.5483944620878,1110.5139108249302,1397.327093350237,735.5718903600053,1002.353305625113
1533223081.345,981.8975859850136,968.1350990159156,1143.9715694141923,753.7235973962715,959.9958695820534
1533223081.349,1032.9725802768955,868.472846555704,928.2319763168365,717.4015852632511,638.8238634896869
1533223081.3520002,1203.249683458912,825.7854452678899,1130.6950253218333,708.325731745118,589.4116735937217
1533223081.356,1316.756128443033,953.9059652533107,1475.3243824642088,826.3862197228003,1143.527893228696
1533223081.36,1237.2958050522034,968.1350990159156,1483.6229305891793,917.1819510251074,1136.4659111443839
1533223081.3639998,1146.4906490649064,1025.0807921273238,1046.058897707885,844.5379267590665,998.8187004672535
1533223081.3679998,1186.2208107603212,1096.2847770623255,825.8941675489409,817.2917681441793,861.1714897901231
1533223081.3720002,1220.2669323536127,953.9059652533107,1040.5269099271027,844.5379267590665,882.3502078116529
1533223081.3760002,1265.681134151151,896.9602721419027,1358.604311792354,790.0642075897799,1132.9385342179312
1533223081.38,1225.950972455736,1010.8516583647189,1373.5405655097072,844.5379267590665,1432.9390505201745
1533223081.3839998,1101.0880710712581,996.6225246021141,933.7639640976189,853.6137802771997,1394.1162196349744
1533223081.3879998,1072.7027419723104,982.3933908395093,734.06747543681,817.2917681441793,1108.2324392699486
1533223081.3920002,1225.950972455736,939.676831490706,1030.569785084732,871.7840853739539,843.5273769264527
1533223081.395,1362.1703302405713,1010.8516583647189,1335.3706428576245,971.674268254882,896.4669437488706
1533223081.399,1242.9798451543268,1139.0013364111287,1469.2395357776263,1017.0907319665234,1305.881198853809
1533223081.4029999,1140.818232766673,982.3933908395093,1093.6319533889448,944.4281096399947,896.4669437488706
1533223081.407,1157.8354816613737,982.3933908395093,772.2362651812989,826.3862197228003,794.1151870304876
1533223081.411,1350.8138738402142,982.3933908395093,926.0194077860423,799.1400611079131,635.2892583318275
1533223081.415,1464.331942628225,939.676831490706,1160.5663998489456,844.5379267590665,201.17613651031314
1533223081.419,1356.4862901384479,896.9602721419027,1369.668287353919,826.3862197228003,723.5242791129928
1533223081.4229999,1231.6233887539697,825.7854452678899,1123.5044608236508,790.0642075897799,840.0
1533223081.427,1123.7893600680823,783.0688859190866,605.7294373899967,808.2159146260461,229.40960838474842
1533223081.431,1242.9798451543268,896.9602721419027,752.8748744023575,853.6137802771997,564.7055786457393
1533223081.435,1345.1414575419806,953.9059652533107,1209.7991651549994,799.1400611079131,935.2897746340708
1533223081.438,1288.3824231479753,1010.8516583647189,1355.83888435576,735.5718903600053,808.2319229677053
1533223081.4420002,1152.16306536314,1082.0556432997207,1110.780775637092,672.0037196120976,755.2923561452875
1533223081.446,1067.030325674077,1096.2847770623255,838.0638609221058,662.9278660939644,751.7649792188347
1533223081.45,1084.0591983726674,939.676831490706,936.5293915342131,708.325731745118,741.1756202080699
1533223081.454,1225.950972455736,840.0145790304946,1173.8429439413046,808.2159146260461,882.3502078116529
1533223081.458,1271.3535504493846,939.676831490706,1320.9883809536655,917.1819510251074,787.0604331775821
1533223081.4620001,1123.7893600680823,896.9602721419027,1158.3538313181514,899.0302439888411,674.1193174484343
1533223081.466,1186.2208107603212,968.1350990159156,752.3220154965575,862.7082318558207,631.7618814053747
1533223081.47,1242.9798451543268,953.9059652533107,744.0246002791808,744.6477438781384,335.29597026099077
1533223081.474,1435.9466135292776,968.1350990159156,964.189330438125,799.1400611079131,483.52531171747944
1533223081.478,1418.9177408306869,1039.3390839509175,897.8077428839242,908.1060975069743,635.2892583318275
1533223081.481,1157.8354816613737,982.3933908395093,798.788220458423,835.4620732409335,412.9416320313912
1533223081.485,1032.9725802768955,925.4185396671122,910.5302951628892,808.2159146260461,871.7608488008881
1533223081.4889998,981.8975859850136,811.527153444296,1062.6548610502323,817.2917681441793,1440.0010326044867
1533223081.4929998,1157.8354816613737,854.2437127930993,1139.546432352604,790.0642075897799,956.4684926556006
1533223081.4970002,1140.818232766673,911.1894059045073,1270.0959060226178,862.7082318558207,924.7004156233058
1533223081.5010002,953.512256886066,811.527153444296,1264.0110593360353,844.5379267590665,1189.4127061982085
1533223081.505,885.4083898955934,840.0145790304946,853.552973545259,762.8180489748926,1034.114154426001
1533223081.5089998,930.8109678892417,925.4185396671122,704.7489598154979,753.7235973962715,794.1151870304876
1533223081.5129998,1106.7604873694916,896.9602721419027,961.975628999737,880.8599388920869,903.5289258331827
1533223081.5170002,1248.6522614525604,882.7311383792979,1221.9699914357582,935.3522561218616,885.8775847381057
1533223081.5210001,1106.7604873694916,896.9602721419027,1054.3563129252618,808.2159146260461,712.9421483336345
1533223081.524,857.0230607966457,882.7311383792979,672.1110249441975,753.7235973962715,892.9395668224179
1533223081.5279999,908.1096788924175,925.4185396671122,700.8766816597097,735.5718903600053,882.3502078116529
1533223081.532,1112.4329036677252,939.676831490706,969.7201853113136,780.9697560111589,931.762397707618
1533223081.536,1180.5483944620878,1025.0807921273238,1179.374931722087,917.1819510251074,804.7045460412526
1533223081.54,1174.8643543599644,1110.5139108249302,1245.756519276288,971.674268254882,963.5304747399127
1533223081.544,1135.1341926645496,1096.2847770623255,880.1060617299769,899.0302439888411,1023.5247954152361
1533223081.5479999,1146.4906490649064,1053.5682177135222,636.707662636303,817.2917681441793,663.5299584376694
1533223081.552,1169.1919380617308,925.4185396671122,906.6580170071009,917.1819510251074,974.112605519271
1533223081.556,1191.8932270585549,968.1350990159156,1033.8892043347203,962.5984147367489,910.5836796860882
1533223081.56,1169.1919380617308,1067.797351476127,1112.440485262086,980.750121773015,479.9979347910267
1533223081.564,1106.7604873694916,982.3933908395093,960.8699111881368,917.1819510251074,391.7629140098614
1533223081.5670002,1140.818232766673,911.1894059045073,667.1330289768091,826.3862197228003,840.0
1533223081.571,1203.249683458912,982.3933908395093,901.1260292263186,935.3522561218616,914.1182848439477
1533223081.575,1356.4862901384479,1124.743044587535,1127.376738979439,998.9204268697692,790.5878101040349
1533223081.579,1294.0548394462087,1039.3390839509175,1148.3967064757808,889.9543904707081,296.46591114438394
1533223081.583,1095.4040309691347,882.7311383792979,1087.5471067023623,880.8599388920869,0.0
1533223081.5870001,1095.4040309691347,968.1350990159156,888.4034769473535,935.3522561218616,441.17510390582646
1533223081.591,1169.1919380617308,925.4185396671122,1051.0380265828674,889.9543904707081,518.8207656762269
1533223081.595,1174.8643543599644,939.676831490706,1412.8162059733902,944.4281096399947,787.0604331775821
1533223081.599,1044.3290366772526,1039.3390839509175,1527.3237081144507,1035.2424390027898,1108.2324392699486
1533223081.603,868.3795171970028,1025.0807921273238,1210.9060158741934,980.750121773015,1030.5867774995481
1533223081.607,874.0519334952363,1025.0807921273238,856.3195338894471,862.7082318558207,1072.9369853112012
1533223081.61,1055.67386927372,996.6225246021141,944.8279396591836,899.0302439888411,815.2939050520174
1533223081.6139998,1089.731614670901,1067.797351476127,1153.375835350763,971.674268254882,776.4710741668173
1533223081.6179998,964.868713286423,1110.5139108249302,1325.4135180152539,1026.1665854846567,928.2350207811653
1533223081.6220002,811.6204828029972,968.1350990159156,1354.179174730766,1026.1665854846567,1150.5826470816016
1533223081.6260002,692.4299977167528,1067.797351476127,996.2732734960315,1007.9962803879024,1037.6487595838603
1533223081.63,805.9480665047637,1096.2847770623255,1080.3565422041797,1044.3182925209228,829.410640989235
1533223081.6339998,981.8975859850136,982.3933908395093,1307.1589779555063,1007.9962803879024,748.2303740609754
1533223081.6379998,817.3045229051207,1067.797351476127,1420.5607622849668,1062.488597617677,642.3512404161396
1533223081.6420002,647.0274197231043,1181.7178957599322,1394.560533006049,1062.488597617677,959.9958695820534
1533223081.6460001,652.699836021338,1153.2304701737337,1031.123776898126,944.4281096399947,1044.703513436766
1533223081.65,607.2972580276895,1067.797351476127,1017.294373899967,953.5225612186158,677.646694374887
1533223081.6529999,681.0851651202856,1053.5682177135222,1280.0530308649884,1053.412744099544,317.6446291659137
1533223081.657,749.1890321107583,1010.8516583647189,1505.196889898915,980.750121773015,367.0568190618788
1533223081.661,550.5382236336841,996.6225246021141,1322.0940987652657,908.1060975069743,621.1725223946098
1533223081.665,454.06065134815367,1082.0556432997207,936.5293915342131,889.9543904707081,1178.8233471874435
1533223081.669,567.5670963322748,1053.5682177135222,1057.1228732694499,880.8599388920869,1150.5826470816016
1533223081.6729999,737.8441995142911,1082.0556432997207,1423.879048627361,899.0302439888411,900.00154890673
1533223081.677,771.8903211075825,1139.0013364111287,1472.5589550276147,917.1819510251074,1016.4700415623306
1533223081.681,556.2222637358076,1039.3390839509175,1480.8563702449912,889.9543904707081,1023.5247954152361
1533223081.685,357.5714552587334,925.4185396671122,1259.031930461053,862.7082318558207,924.7004156233058
1533223081.689,516.4921020403928,911.1894059045073,1145.0772872257926,889.9543904707081,716.4695252600873
1533223081.6929998,692.4299977167528,797.2980196816912,1420.0067704715727,908.1060975069743,762.3543382295996
1533223081.696,629.9985470245138,754.581460332888,1646.8103391304935,1017.0907319665234,885.8775847381057
1533223081.7,437.0317786495631,854.2437127930993,1562.7270704223452,1062.488597617677,659.99535327981
1533223081.704,385.94516055379125,840.0145790304946,1137.8867227276098,935.3522561218616,402.3522730206263
1533223081.708,516.4921020403928,939.676831490706,984.6564390286666,926.2764026037285,765.8817151560523
1533223081.7120001,726.487743113934,953.9059652533107,1265.1179100552292,899.0302439888411,1122.3491752071664
1533223081.716,834.3217717998215,896.9602721419027,1615.8321138841873,962.5984147367489,935.2897746340708
1533223081.72,766.2179048093489,939.676831490706,1680.0,1071.56445113581,1041.1761365103132
1533223081.724,612.9696743259232,868.472846555704,1278.9473130533884,1035.2424390027898,1161.1720060923665
1533223081.728,652.699836021338,896.9602721419027,1089.7596752331565,1062.488597617677,907.0563027596355
1533223081.732,822.9769392033543,1010.8516583647189,1425.5387582523551,1053.412744099544,970.5852285928182
1533223081.736,805.9480665047637,1067.797351476127,1479.1966606199971,989.8445733516362,797.6425639569404
1533223081.7389998,777.5743612097059,1010.8516583647189,1457.6227013102616,1098.8106097506975,691.7634303121047
1533223081.7429998,794.5916101044066,953.9059652533107,1391.2422466636547,1216.8710977283797,1051.765495521078
1533223081.7470002,788.9191938061731,840.0145790304946,1110.780775637092,1089.7347562325642,832.9380179156879
1533223081.7510002,845.6782282001785,825.7854452678899,1360.2640214173484,1171.4546340167383,942.351756718383
1533223081.755,1021.6277476804285,996.6225246021141,1564.9396389531394,1316.761280609308,1199.9948369775666
1533223081.7589998,953.512256886066,1096.2847770623255,1507.409458429709,1253.1931098614002,850.589359010765
1533223081.7629998,919.4661352927745,1224.4052970477464,1310.4783972054945,1389.4053048753487,582.3496915094096
1533223081.7670002,919.4661352927745,1252.892722633945,1065.4202884868266,1534.7119514679184,638.8238634896869
1533223081.7710001,737.8441995142911,982.3933908395093,1244.6496685570937,1334.912987645574,589.4116735937217
1533223081.775,749.1890321107583,825.7854452678899,1502.983188460527,1089.7347562325642,681.1740713013398
1533223081.779,794.5916101044066,925.4185396671122,1525.6639984894566,1189.6249391134925,836.4653948421405
1533223081.782,652.699836021338,911.1894059045073,1303.8395587055181,1135.1326218837178,758.8197330717402
1533223081.786,635.6825871266371,996.6225246021141,1031.123776898126,926.2764026037285,854.1167359372176
1533223081.79,749.1890321107583,1082.0556432997207,1172.1832343163105,971.674268254882,875.2954539587474
1533223081.794,822.9769392033543,968.1350990159156,1387.3699685078664,1071.56445113581,945.8791336448356
1533223081.7979999,845.6782282001785,1010.8516583647189,1434.9430241889258,1116.9809148474517,832.9380179156879
1533223081.802,777.5743612097059,1110.5139108249302,1152.268984631569,1198.7007926316255,568.2329555721919
1533223081.806,828.6493555015879,1067.797351476127,788.2782367102521,1144.227073462339,483.52531171747944
1533223081.81,953.512256886066,811.527153444296,1102.4833604197154,1180.5490855953594,712.9421483336345
1533223081.814,1032.9725802768955,825.7854452678899,1355.284892542366,1280.4392684762875,885.8775847381057
1533223081.8179998,1021.6277476804285,1067.797351476127,1290.0101557073592,1153.302926980472,875.2954539587474
1533223081.822,930.8109678892417,1096.2847770623255,1285.0321597399707,1162.3787804986052,974.112605519271
1533223081.825,845.6782282001785,1010.8516583647189,1016.740382086573,1171.4546340167383,843.5273769264527
1533223081.829,942.1674242895988,1039.3390839509175,989.634434996055,1116.9809148474517,610.5831633838449
1533223081.833,1101.0880710712581,1181.7178957599322,1242.4371000262997,1162.3787804986052,600.0010326044867
1533223081.8370001,1157.8354816613737,1110.5139108249302,1436.048742000526,1189.6249391134925,1058.8202493739836
1533223081.841,1015.943707578305,968.1350990159156,1299.9672805497298,1116.9809148474517,1087.053721248419
1533223081.845,868.3795171970028,896.9602721419027,790.4908052410464,1089.7347562325642,338.8233471874435
1533223081.849,936.4833841874754,868.472846555704,713.0463750328746,1062.488597617677,575.2949376565041
1533223081.853,1061.3579093758433,840.0145790304946,1006.7832572442023,1044.3182925209228,642.3512404161396
1533223081.857,1032.9725802768955,840.0145790304946,1112.993344167886,1098.8106097506975,384.70093192554924
1533223081.861,970.5411295846566,1010.8516583647189,1226.9479874031465,1035.2424390027898,1115.2944213542607
1533223081.865,919.4661352927745,1110.5139108249302,1032.7823536155263,1035.2424390027898,1210.5841959883317
1533223081.8679998,959.1962969881894,1153.2304701737337,802.6604986142113,1107.8864632688305,462.35382192735625
1533223081.8720002,1072.7027419723104,1096.2847770623255,1056.016022550256,1144.227073462339,345.87810104034895
1533223081.8760002,1095.4040309691347,1010.8516583647189,1252.3942248686703,1071.56445113581,239.9989673955134
1533223081.88,908.1096788924175,1025.0807921273238,1183.2472098778753,989.8445733516362,338.8233471874435
1533223081.8839998,760.5454885111153,982.3933908395093,812.617623456582,944.4281096399947,529.4101246869918
1533223081.8879998,862.7071008987691,1025.0807921273238,688.1529964731508,962.5984147367489,607.0557864573922
1533223081.8920002,987.5700022832472,996.6225246021141,940.4016696900014,962.5984147367489,984.7019645300359
1533223081.8960001,1021.6277476804285,911.1894059045073,1094.7388041081388,944.4281096399947,811.7665281255647
1533223081.9,879.7359735973597,1053.5682177135222,1105.8027796697036,944.4281096399947,494.11467072824433
1533223081.904,777.5743612097059,1039.3390839509175,886.7437673223594,1035.2424390027898,847.0547538529055
1533223081.908,788.9191938061731,925.4185396671122,691.472415723139,989.8445733516362,1065.8822314582958
1533223081.911,822.9769392033543,925.4185396671122,981.3370197786784,926.2764026037285,1083.526344321966
1533223081.915,959.1962969881894,925.4185396671122,1093.6319533889448,1007.9962803879024,1185.878101040349
1533223081.919,919.4661352927745,939.676831490706,927.1262585052364,1007.9962803879024,822.3486589049229
1533223081.9229999,794.5916101044066,1010.8516583647189,826.447026454741,980.750121773015,656.4679763533572
1533223081.927,868.3795171970028,1039.3390839509175,696.4504116905274,962.5984147367489,868.2334718744353
1533223081.931,936.4833841874754,1010.8516583647189,938.7430929726012,926.2764026037285,995.2913235408008
1533223081.935,1044.3290366772526,1025.0807921273238,1210.9060158741934,944.4281096399947,804.7045460412526
1533223081.939,1061.3579093758433,939.676831490706,1191.5446250952518,1007.9962803879024,712.9421483336345
1533223081.9429998,862.7071008987691,1067.797351476127,779.4279625870754,998.9204268697692,854.1167359372176
1533223081.947,828.6493555015879,1195.947029522537,388.3312675752406,1062.488597617677,705.8801662493223
1533223081.951,1010.2712912800714,1139.0013364111287,781.0865393044757,1062.488597617677,847.0547538529055
1533223081.954,1146.4906490649064,1167.4596039363385,1103.5890782313154,1044.3182925209228,850.589359010765
1533223081.958,1021.6277476804285,1153.2304701737337,1009.5498175883904,1035.2424390027898,677.646694374887
1533223081.9620001,953.512256886066,1082.0556432997207,1010.1026764941905,989.8445733516362,871.7608488008881
1533223081.966,981.8975859850136,996.6225246021141,756.7471525581458,1007.9962803879024,712.9421483336345
1533223081.97,891.0808061938269,1053.5682177135222,845.2555583278823,953.5225612186158,554.1162196349743
1533223081.974,998.9264586836042,1139.0013364111287,1188.7791976586577,889.9543904707081,811.7665281255647
1533223081.978,1084.0591983726674,1082.0556432997207,1292.2227242381534,1026.1665854846567,1005.8806825515657
1533223081.982,868.3795171970028,882.7311383792979,1056.5700143636498,1017.0907319665234,1111.7598161964013
1533223081.986,862.7071008987691,982.3933908395093,675.9833030999858,908.1060975069743,1030.5867774995481
1533223081.99,1027.300163978662,1124.743044587535,637.814513355497,1026.1665854846567,522.3481426026796
1533223081.994,1112.4329036677252,1153.2304701737337,974.1464552804957,1126.0567683655847,914.1182848439477
1533223081.998,1146.4906490649064,1153.2304701737337,1058.2285910810501,1235.022804764646,889.4121898959651
1533223082.0010002,1123.7893600680823,1096.2847770623255,995.7204145902314,1298.5909755125538,448.2370859901386
1533223082.005,1044.3290366772526,1110.5139108249302,814.8313248949701,1244.1172563432672,1041.1761365103132
1533223082.0089998,1095.4040309691347,1110.5139108249302,891.1689043839477,1235.022804764646,1185.878101040349
1533223082.0129998,1231.6233887539697,1139.0013364111287,1207.033737718405,1362.1591462604615,843.5273769264527
1533223082.0170002,1254.3246777507939,1267.12185639655,1297.2018531131357,1371.2535978390824,582.3496915094096
1533223082.0210001,1231.6233887539697,1210.1761632851417,1167.205238348922,1380.3294513572157,744.7029971345225
1533223082.025,1135.1341926645496,1039.3390839509175,808.1924863949936,1425.727317008369,864.7060949479826
1533223082.029,1191.8932270585549,1167.4596039363385,849.6806953894707,1380.3294513572157,1087.053721248419
1533223082.033,1333.7850011416235,1238.6635888713402,1143.4187105083922,1353.0832927423282,914.1182848439477
1533223082.0370002,1265.681134151151,1167.4596039363385,1255.1596523052647,1334.912987645574,896.4669437488706
1533223082.0410001,1050.0014529754862,1181.7178957599322,1126.2698882602451,1253.1931098614002,1369.4101246869918
1533223082.044,891.0808061938269,1181.7178957599322,822.5758812065466,1153.302926980472,1037.6487595838603
1533223082.0479999,1021.6277476804285,1124.743044587535,825.3413086431409,1189.6249391134925,730.5862611973049
1533223082.052,1203.249683458912,1167.4596039363385,1155.5884038815573,1180.5490855953594,822.3486589049229
1533223082.056,1135.1341926645496,1195.947029522537,1369.114295540525,1162.3787804986052,938.8243797919301
1533223082.06,947.8398405878323,1139.0013364111287,1216.9908625607757,1053.412744099544,981.1745876035832
1533223082.064,862.7071008987691,1025.0807921273238,854.659824264453,953.5225612186158,1051.765495521078
1533223082.0679998,970.5411295846566,1025.0807921273238,835.8512923913116,935.3522561218616,924.7004156233058
1533223082.072,1095.4040309691347,1139.0013364111287,1252.3942248686703,1044.3182925209228,1199.9948369775666
1533223082.076,1157.8354816613737,1082.0556432997207,1271.2027567418118,1153.302926980472,1058.8202493739836
1533223082.08,1072.7027419723104,1010.8516583647189,1149.5035571949747,1135.1326218837178,868.2334718744353
1533223082.0839999,930.8109678892417,996.6225246021141,952.0185041573662,1189.6249391134925,1065.8822314582958
1533223082.0870001,1010.2712912800714,882.7311383792979,778.3211118678814,1198.7007926316255,1182.3507241138964
1533223082.091,1186.2208107603212,911.1894059045073,1225.8422695915463,1298.5909755125538,949.4065105712884
1533223082.095,1254.3246777507939,1153.2304701737337,1302.179849080524,1307.6854270911747,688.236053385652
1533223082.099,1203.249683458912,1139.0013364111287,1170.5235246913164,1171.4546340167383,889.4121898959651
1533223082.103,1010.2712912800714,968.1350990159156,1106.9084974813036,1098.8106097506975,670.5847122905749
1533223082.107,998.9264586836042,1082.0556432997207,971.3798949363077,1071.56445113581,952.9411157291479
1533223082.111,1095.4040309691347,1195.947029522537,1237.4579711513175,1180.5490855953594,1369.4101246869918
1533223082.115,1078.375158270544,1096.2847770623255,1481.9632209641852,1135.1326218837178,1189.4127061982085
1533223082.119,1015.943707578305,1082.0556432997207,1311.5841150170947,1026.1665854846567,677.646694374887
1533223082.123,987.5700022832472,1110.5139108249302,1043.293470271291,1071.56445113581,585.884296667269
1533223082.127,993.2424185814808,1153.2304701737337,894.488323633936,1089.7347562325642,705.8801662493223
1533223082.13,1118.1053199659589,1210.1761632851417,1037.7614824905086,1089.7347562325642,970.5852285928182
1533223082.1339998,1237.2958050522034,1181.7178957599322,1310.4783972054945,1144.227073462339,1214.118801146191
1533223082.1379998,1095.4040309691347,1167.4596039363385,1433.8361734697319,1116.9809148474517,963.5304747399127
1533223082.1420002,908.1096788924175,1067.797351476127,1227.5008463089466,1044.3182925209228,748.2303740609754
1533223082.1460001,976.2135458828902,1082.0556432997207,893.9354647281359,1026.1665854846567,677.646694374887
1533223082.15,1078.375158270544,1195.947029522537,1088.1010985157561,1044.3182925209228,719.99690218654
1533223082.154,1089.731614670901,1139.0013364111287,1279.5001719591883,1026.1665854846567,494.11467072824433
1533223082.158,1101.0880710712581,1124.743044587535,1207.033737718405,1071.56445113581,349.4127061982084
1533223082.1620002,998.9264586836042,1195.947029522537,1175.5026535662987,1098.8106097506975,483.52531171747944
1533223082.1660001,1044.3290366772526,1224.4052970477464,923.8068392552482,1080.6589027144312,370.58419598833154
1533223082.17,1129.461776366316,1153.2304701737337,971.3798949363077,1062.488597617677,63.52892583318275
1533223082.1729999,1169.1919380617308,1082.0556432997207,1319.3286713286714,1044.3182925209228,402.3522730206263
1533223082.177,1203.249683458912,1124.743044587535,1346.4346184191893,1080.6589027144312,550.5888427085216
1533223082.181,947.8398405878323,1082.0556432997207,1079.8025503907857,1135.1326218837178,360.0020652089733
1533223082.185,896.7532224920606,1124.743044587535,900.5731703205184,1062.488597617677,723.5242791129928
1533223082.189,1146.4906490649064,1167.4596039363385,1036.6546317713146,1035.2424390027898,758.8197330717402
1533223082.1929998,1174.8643543599644,1039.3390839509175,1363.5834406673366,1135.1326218837178,896.4669437488706
1533223082.197,1027.300163978662,982.3933908395093,1254.6067933994646,1144.227073462339,868.2334718744353
1533223082.201,885.4083898955934,896.9602721419027,1091.4193848581506,1126.0567683655847,705.8801662493223
1533223082.205,902.437262594184,939.676831490706,981.8910115920723,1089.7347562325642,825.8832640627824
1533223082.2089999,1032.9725802768955,1025.0807921273238,981.8910115920723,1053.412744099544,1051.765495521078
1533223082.2129998,1174.8643543599644,925.4185396671122,1271.2027567418118,1062.488597617677,1058.8202493739836
1533223082.216,1163.519521763497,882.7311383792979,1401.1993715060253,1162.3787804986052,903.5289258331827
1533223082.22,1050.0014529754862,925.4185396671122,1225.2882777781524,1062.488597617677,765.8817151560523
1533223082.224,908.1096788924175,896.9602721419027,732.960624717616,971.674268254882,663.5299584376694
1533223082.228,891.0808061938269,939.676831490706,651.089924540262,980.750121773015,907.0563027596355
1533223082.232,1101.0880710712581,1010.8516583647189,1080.9094011099796,1098.8106097506975,829.410640989235
1533223082.236,1152.16306536314,968.1350990159156,1143.9715694141923,1098.8106097506975,564.7055786457393
1533223082.24,1067.030325674077,996.6225246021141,1047.7186073328792,1071.56445113581,568.2329555721919
1533223082.244,976.2135458828902,1167.4596039363385,960.3170522823367,1017.0907319665234,469.40857578026174
1533223082.248,970.5411295846566,1295.6092819827484,852.4472557336588,889.9543904707081,557.6435965614271
1533223082.252,1157.8354816613737,1252.892722633945,1182.6943509720752,989.8445733516362,850.589359010765
1533223082.256,1214.594516055379,1139.0013364111287,1405.0716496618136,1098.8106097506975,924.7004156233058
1533223082.2589998,1027.300163978662,1124.743044587535,1251.8413659628702,1171.4546340167383,811.7665281255647
1533223082.2629998,981.8975859850136,1096.2847770623255,919.9345610994599,1144.227073462339,1016.4700415623306
1533223082.2670002,993.2424185814808,1025.0807921273238,721.3437902502512,1035.2424390027898,1094.115703332731
1533223082.2710001,1123.7893600680823,1096.2847770623255,869.5949450742122,1017.0907319665234,508.231406665462
1533223082.275,1288.3824231479753,1267.12185639655,1004.5706887134081,1089.7347562325642,402.3522730206263
1533223082.279,1084.0591983726674,1139.0013364111287,994.0607049652373,1089.7347562325642,779.99845109327
1533223082.283,930.8109678892417,1039.3390839509175,952.5724959707602,1017.0907319665234,758.8197330717402
1533223082.2870002,964.868713286423,1139.0013364111287,729.6412054676279,1026.1665854846567,712.9421483336345
1533223082.2910001,1152.16306536314,1082.0556432997207,951.4656452515662,1135.1326218837178,748.2303740609754
1533223082.295,1294.0548394462087,996.6225246021141,1322.6480905786595,1189.6249391134925,924.7004156233058
1533223082.299,1027.300163978662,953.9059652533107,1238.0119629647113,1189.6249391134925,723.5242791129928
1533223082.302,834.3217717998215,1039.3390839509175,934.8708148168129,1116.9809148474517,885.8775847381057
1533223082.306,840.0058119019449,1181.7178957599322,675.4304441941857,1026.1665854846567,1051.765495521078
1533223082.31,885.4083898955934,1082.0556432997207,851.3404050144647,998.9204268697692,705.8801662493223
1533223082.314,993.2424185814808,1124.743044587535,1155.5884038815573,1089.7347562325642,843.5273769264527
1533223082.3179998,862.7071008987691,1167.4596039363385,1033.3363454289201,1098.8106097506975,624.7071275524692
1533223082.322,726.487743113934,1167.4596039363385,728.5354876560277,962.5984147367489,702.3527893228696
1533223082.326,777.5743612097059,1324.067549507958,486.7967981873479,953.5225612186158,515.2933887497741
1533223082.33,874.0519334952363,1466.4463613169726,827.553877173935,944.4281096399947,674.1193174484343
1533223082.3339999,942.1674242895988,1566.108613777184,1179.374931722087,1026.1665854846567,1203.529442135426
1533223082.3379998,822.9769392033543,1665.7708662373955,948.1462260015779,1035.2424390027898,952.9411157291479
1533223082.342,618.6537144280466,1651.5417324747907,775.0016926178932,889.9543904707081,910.5836796860882
1533223082.345,482.4343566432115,1509.162920665776,554.2841035531488,780.9697560111589,808.2319229677053
1533223082.349,499.4632293418021,1409.5006682055646,734.06747543681,799.1400611079131,864.7060949479826
1533223082.353,715.131286713577,1480.6754950795773,1134.5673034776216,844.5379267590665,1298.819216769497
1533223082.357,692.4299977167528,1580.3377475397888,1143.4187105083922,889.9543904707081,1108.2324392699486
1533223082.361,499.4632293418021,1608.8251731259872,857.4252517010473,880.8599388920869,649.4132225004518
1533223082.365,425.67532224920603,1623.0543068885925,391.64955391763493,780.9697560111589,652.9405994269046
1533223082.369,414.33048965273883,1580.3377475397888,446.414307004471,862.7082318558207,663.5299584376694
1533223082.373,618.6537144280466,1580.3377475397888,906.1051581013008,844.5379267590665,501.1766528125565
1533223082.377,681.0851651202856,1680.0,1024.4849383981496,808.2159146260461,405.87964994707903
1533223082.381,397.30161695414824,1580.3377475397888,896.7008921647301,853.6137802771997,727.0588842708521
1533223082.385,340.5425825601428,1423.7298019681693,569.773216176302,762.8180489748926,790.5878101040349
1533223082.3879998,414.33048965273883,1395.2715344429594,565.9009380205138,826.3862197228003,938.8243797919301
1533223082.3920002,533.5093509350935,1409.5006682055646,960.8699111881368,998.9204268697692,1140.0005163022433
1533223082.3960001,607.2972580276895,1409.5006682055646,911.6371458820832,998.9204268697692,959.9958695820534
1533223082.4,476.7619403449779,1409.5006682055646,618.4531225765555,1007.9962803879024,719.99690218654
1533223082.404,522.1645183386263,1352.5549750941564,491.22193524893623,1026.1665854846567,561.1782017192864
1533223082.408,612.9696743259232,1238.6635888713402,581.9429095494669,1053.412744099544,1027.0594005730954
1533223082.4120002,578.9235527326317,1210.1761632851417,853.000114639459,1235.022804764646,1203.529442135426
1533223082.4160001,652.699836021338,1238.6635888713402,824.2344579239468,1271.3448168976663,928.2350207811653
1533223082.42,618.6537144280466,1238.6635888713402,709.1740968770863,1171.4546340167383,847.0547538529055
1533223082.424,556.2222637358076,1153.2304701737337,654.9622026960503,1116.9809148474517,787.0604331775821
1533223082.428,658.3838761234614,1039.3390839509175,589.1346069552434,1053.412744099544,917.6456617704004
1533223082.431,879.7359735973597,1195.947029522537,860.1918120452353,1153.302926980472,829.410640989235
1533223082.435,896.7532224920606,1252.892722633945,1092.5262355773446,1153.302926980472,896.4669437488706
1533223082.439,771.8903211075825,1153.2304701737337,1000.6984105576198,1126.0567683655847,1192.9400831246612
1533223082.4429998,618.6537144280466,1210.1761632851417,633.3882433863148,1116.9809148474517,1136.4659111443839
1533223082.447,595.9524254312224,1139.0013364111287,378.92700163866994,1126.0567683655847,589.4116735937217
1533223082.451,749.1890321107583,1039.3390839509175,770.5765555563048,1171.4546340167383,1157.6446291659138
1533223082.455,845.6782282001785,1110.5139108249302,1062.6548610502323,1144.227073462339,1478.8238634896868
1533223082.4589999,709.4588704153434,1167.4596039363385,704.7489598154979,1253.1931098614002,278.82179828071355
1533223082.4629998,561.8946800340411,1181.7178957599322,380.0338523578639,1289.5151219944205,324.7066112502259
1533223082.467,539.1933910372169,1053.5682177135222,438.66975069289435,1207.7766461497586,981.1745876035832
1533223082.471,720.8153268157005,1067.797351476127,787.725377804452,1225.9469512465128,910.5836796860882
1533223082.474,760.5454885111153,1139.0013364111287,1013.9749546499787,1198.7007926316255,1140.0005163022433
1533223082.478,533.5093509350935,1124.743044587535,969.1673264055134,1180.5490855953594,1372.9375016134445
1533223082.482,442.7041949477967,1082.0556432997207,716.9186531886628,1153.302926980472,1305.881198853809
1533223082.486,510.8080619382693,1082.0556432997207,363.43788901551676,1007.9962803879024,744.7029971345225
1533223082.49,692.4299977167528,1153.2304701737337,601.8571592342084,1071.56445113581,712.9421483336345
1533223082.494,840.0058119019449,1110.5139108249302,863.5100983876297,1162.3787804986052,811.7665281255647
1533223082.498,788.9191938061731,1139.0013364111287,808.7464782083875,1089.7347562325642,554.1162196349743
1533223082.502,658.3838761234614,1110.5139108249302,656.0690534152443,1044.3182925209228,744.7029971345225
1533223082.506,607.2972580276895,968.1350990159156,319.7371114902455,980.750121773015,1044.703513436766
1533223082.51,743.5166158125246,1082.0556432997207,408.79837616578214,1044.3182925209228,871.7608488008881
1533223082.514,981.8975859850136,1224.4052970477464,823.1287401123467,1171.4546340167383,667.0573353641222
1533223082.5170002,1038.656620379019,1224.4052970477464,724.6632095002394,1216.8710977283797,924.7004156233058
1533223082.5210001,811.6204828029972,1110.5139108249302,456.92542366023554,1107.8864632688305,624.7071275524692
1533223082.525,647.0274197231043,1025.0807921273238,538.2421320241957,1071.56445113581,472.9359527067145
1533223082.529,817.3045229051207,1110.5139108249302,754.5345840273516,1080.6589027144312,857.6441128636704
1533223082.533,981.8975859850136,1139.0013364111287,1024.4849383981496,1062.488597617677,847.0547538529055
1533223082.5370002,936.4833841874754,1025.0807921273238,1052.6977362078617,1062.488597617677,748.2303740609754
1533223082.5410001,851.3506444984121,1010.8516583647189,779.9808214928755,1017.0907319665234,617.645145468157
1533223082.545,805.9480665047637,1010.8516583647189,449.18086734865904,944.4281096399947,734.1136381237576
1533223082.549,817.3045229051207,1010.8516583647189,552.0715350223547,944.4281096399947,1030.5867774995481
1533223082.553,993.2424185814808,1082.0556432997207,832.5330060489173,1007.9962803879024,1143.527893228696
1533223082.5570002,1021.6277476804285,1139.0013364111287,776.1085433370872,1053.412744099544,875.2954539587474
1533223082.56,828.6493555015879,1324.067549507958,690.9195568173388,1053.412744099544,896.4669437488706
1533223082.564,698.1140378188762,1324.067549507958,510.0304671220775,953.5225612186158,843.5273769264527
1533223082.5679998,913.7820951906511,1110.5139108249302,446.414307004471,980.750121773015,642.3512404161396
1533223082.572,1112.4329036677252,911.1894059045073,793.8102244910345,1044.3182925209228,811.7665281255647
1533223082.576,1078.375158270544,1053.5682177135222,913.2968555070773,1071.56445113581,705.8801662493223
1533223082.58,913.7820951906511,1124.743044587535,756.1942936523458,1053.412744099544,681.1740713013398
1533223082.5839999,766.2179048093489,911.1894059045073,509.4764753086836,1007.9962803879024,900.00154890673
1533223082.5879998,976.2135458828902,996.6225246021141,448.6268755352651,1026.1665854846567,1027.0594005730954
1533223082.592,1146.4906490649064,1195.947029522537,749.5554551523693,1271.3448168976663,737.648243281617
1533223082.596,1089.731614670901,1181.7178957599322,945.3807985649837,1353.0832927423282,709.4075431757751
1533223082.6,1050.0014529754862,1139.0013364111287,692.5781335347391,1271.3448168976663,882.3502078116529
1533223082.603,1010.2712912800714,1181.7178957599322,318.07740186525143,1262.2689633795333,1034.114154426001
1533223082.607,1214.594516055379,1210.1761632851417,365.650457546311,1289.5151219944205,1256.469008957844
1533223082.611,1254.3246777507939,1082.0556432997207,812.617623456582,1216.8710977283797,1129.4111572914785
1533223082.615,1095.4040309691347,1039.3390839509175,840.830421266294,1262.2689633795333,882.3502078116529
1533223082.619,987.5700022832472,1139.0013364111287,536.5824223992016,1307.6854270911747,741.1756202080699
1533223082.623,857.0230607966457,1096.2847770623255,495.0942134047245,1189.6249391134925,885.8775847381057
1533223082.627,1032.9725802768955,1039.3390839509175,352.927905267346,1198.7007926316255,847.0547538529055
1533223082.631,1225.950972455736,1110.5139108249302,623.431118543944,1253.1931098614002,624.7071275524692
1533223082.635,1231.6233887539697,1224.4052970477464,967.5076167805194,1198.7007926316255,772.9364690089578
1533223082.639,1140.818232766673,1210.1761632851417,886.7437673223594,1171.4546340167383,1034.114154426001
1533223082.643,1078.375158270544,1167.4596039363385,559.2632324281311,1144.227073462339,977.6472106771304
1533223082.6460001,1078.375158270544,1167.4596039363385,210.76046422237357,1189.6249391134925,878.8228308852002
1533223082.65,1220.2669323536127,1110.5139108249302,490.6690763431361,1289.5151219944205,882.3502078116529
1533223082.654,1350.8138738402142,1082.0556432997207,888.9563358531536,1271.3448168976663,1115.2944213542607
1533223082.658,1220.2669323536127,1053.5682177135222,673.2178756633916,1253.1931098614002,1111.7598161964013
1533223082.6620002,1004.5988749818378,1010.8516583647189,475.732822625783,1135.1326218837178,709.4075431757751
1533223082.6660001,908.1096788924175,925.4185396671122,417.0957913831589,1144.227073462339,755.2923561452875
1533223082.67,1067.030325674077,939.676831490706,631.7296666689145,1098.8106097506975,741.1756202080699
1533223082.674,1146.4906490649064,968.1350990159156,885.6380495107593,980.750121773015,564.7055786457393
1533223082.678,1010.2712912800714,1010.8516583647189,858.5321024202412,980.750121773015,472.9359527067145
1533223082.6820002,925.1385515910082,1082.0556432997207,531.6044264318132,962.5984147367489,547.0542375506622
1533223082.686,885.4083898955934,1110.5139108249302,253.90838284184474,989.8445733516362,797.6425639569404
1533223082.689,1067.030325674077,1067.797351476127,569.773216176302,1062.488597617677,900.00154890673
1533223082.6929998,1265.681134151151,1167.4596039363385,783.3002407428637,1098.8106097506975,645.8786173425924
1533223082.697,1180.5483944620878,1124.743044587535,805.9799178641995,1162.3787804986052,670.5847122905749
1533223082.701,987.5700022832472,882.7311383792979,695.8975527847273,1135.1326218837178,762.3543382295996
1533223082.705,930.8109678892417,953.9059652533107,384.4589894194523,989.8445733516362,532.9375016134445
1533223082.7089999,1038.656620379019,1010.8516583647189,560.9229420531253,980.750121773015,910.5836796860882
1533223082.7129998,1186.2208107603212,996.6225246021141,937.0833833476071,1080.6589027144312,1094.115703332731
1533223082.717,1197.5656433567885,1010.8516583647189,925.4665488802423,1144.227073462339,938.8243797919301
1533223082.721,1118.1053199659589,896.9602721419027,671.5581660383975,1171.4546340167383,670.5847122905749
1533223082.725,1078.375158270544,939.676831490706,416.5429324773587,1089.7347562325642,642.3512404161396
1533223082.7289999,1186.2208107603212,1110.5139108249302,534.9227127742075,1062.488597617677,991.763946614348
1533223082.732,1362.1703302405713,1224.4052970477464,900.5731703205184,1144.227073462339,914.1182848439477
1533223082.736,1379.187579135272,1139.0013364111287,977.4647416228901,1135.1326218837178,924.7004156233058
1533223082.74,1146.4906490649064,982.3933908395093,666.0261782576151,1044.3182925209228,1019.9974184887833
1533223082.744,953.512256886066,1025.0807921273238,301.4825714304981,1062.488597617677,730.5862611973049
1533223082.748,1084.0591983726674,1010.8516583647189,373.9478727636876,1126.0567683655847,624.7071275524692
1533223082.752,1248.6522614525604,1010.8516583647189,925.4665488802423,1198.7007926316255,779.99845109327
1533223082.756,1152.16306536314,1124.743044587535,1124.057319729451,1225.9469512465128,741.1756202080699
1533223082.76,1004.5988749818378,1082.0556432997207,888.4034769473535,1107.8864632688305,621.1725223946098
1533223082.764,1027.300163978662,1181.7178957599322,588.5817480494434,1007.9962803879024,691.7634303121047
1533223082.768,1118.1053199659589,1153.2304701737337,567.5606476455079,917.1819510251074,970.5852285928182
1533223082.772,1140.818232766673,1096.2847770623255,956.9976330323485,844.5379267590665,539.9994836977567
1533223082.775,1282.7100068497416,1153.2304701737337,992.4009953402432,889.9543904707081,529.4101246869918
1533223082.779,1282.7100068497416,1252.892722633945,676.536162005786,880.8599388920869,811.7665281255647
1533223082.783,998.9264586836042,1210.1761632851417,614.0268526073734,826.3862197228003,575.2949376565041
1533223082.7870002,1021.6277476804285,1153.2304701737337,537.1352813050016,935.3522561218616,656.4679763533572
1533223082.7910001,1191.8932270585549,1309.8384157453531,948.1462260015779,980.750121773015,1076.4715904690606
1533223082.795,1180.5483944620878,1210.1761632851417,1200.9488910318225,935.3522561218616,1161.1720060923665
1533223082.799,1067.030325674077,1110.5139108249302,840.2775623604939,944.4281096399947,741.1756202080699
1533223082.803,976.2135458828902,1067.797351476127,753.4277333081576,899.0302439888411,705.8801662493223
1533223082.8070002,1078.375158270544,1153.2304701737337,749.5554551523693,853.6137802771997,829.410640989235
1533223082.811,1089.731614670901,1139.0013364111287,1053.8034540194617,880.8599388920869,1094.115703332731
1533223082.815,1084.0591983726674,996.6225246021141,1250.7345152436762,935.3522561218616,956.4684926556006
1533223082.819,1072.7027419723104,1139.0013364111287,1109.1210660120978,998.9204268697692,776.4710741668173
1533223082.822,970.5411295846566,1139.0013364111287,832.5330060489173,899.0302439888411,952.9411157291479
1533223082.826,1004.5988749818378,1082.0556432997207,611.8142840765792,817.2917681441793,758.8197330717402
1533223082.83,1118.1053199659589,1124.743044587535,848.0209857644766,889.9543904707081,388.23553708340864
1533223082.8339999,1163.519521763497,1082.0556432997207,1075.3774133291972,1007.9962803879024,610.5831633838449
1533223082.8379998,1061.3579093758433,1096.2847770623255,1041.6337606462969,989.8445733516362,681.1740713013398
1533223082.842,964.868713286423,1139.0013364111287,899.4674525089183,862.7082318558207,667.0573353641222
1533223082.846,981.8975859850136,1025.0807921273238,705.301818721298,853.6137802771997,797.6425639569404
1533223082.85,1044.3290366772526,1010.8516583647189,914.9565651320714,908.1060975069743,667.0573353641222
1533223082.8539999,1078.375158270544,1039.3390839509175,1154.4815531623633,899.0302439888411,547.0542375506622
1533223082.8579998,987.5700022832472,925.4185396671122,1052.1437443944676,899.0302439888411,843.5273769264527
1533223082.8620002,902.437262594184,953.9059652533107,939.2959518784013,944.4281096399947,1023.5247954152361
1533223082.865,896.7532224920606,1053.5682177135222,807.0867685833935,889.9543904707081,832.9380179156879
1533223082.869,1101.0880710712581,1053.5682177135222,979.6773101536843,844.5379267590665,935.2897746340708
1533223082.873,1282.7100068497416,1181.7178957599322,1324.8606591094538,944.4281096399947,1044.703513436766
1533223082.877,1146.4906490649064,1267.12185639655,1299.41442164393,889.9543904707081,885.8775847381057
1533223082.881,993.2424185814808,1110.5139108249302,911.0842869762831,771.8939024930257,794.1151870304876
1533223082.885,1032.9725802768955,925.4185396671122,614.0268526073734,899.0302439888411,843.5273769264527
1533223082.889,1095.4040309691347,996.6225246021141,902.7857388513127,998.9204268697692,956.4684926556006
1533223082.893,1152.16306536314,1067.797351476127,1374.6462833213075,1017.0907319665234,878.8228308852002
1533223082.897,1225.950972455736,1082.0556432997207,1198.1834635952282,1116.9809148474517,928.2350207811653
1533223082.901,1055.67386927372,1124.743044587535,815.3841838007701,1089.7347562325642,557.6435965614271
1533223082.905,817.3045229051207,1096.2847770623255,807.6396274891936,889.9543904707081,275.29442135426075
1533223082.908,913.7820951906511,968.1350990159156,877.3395013857887,862.7082318558207,490.5872938017916
1533223082.9120002,1101.0880710712581,911.1894059045073,1235.799394433917,1007.9962803879024,751.7649792188347
1533223082.9160001,1067.030325674077,1039.3390839509175,1450.984995717879,1135.1326218837178,875.2954539587474
1533223082.92,822.9769392033543,996.6225246021141,1254.0539344936644,1080.6589027144312,1189.4127061982085
1533223082.924,743.5166158125246,953.9059652533107,906.1051581013008,871.7840853739539,1175.2887420295842
1533223082.928,800.27565020653,1039.3390839509175,771.1294144621049,844.5379267590665,1157.6446291659138
1533223082.9320002,885.4083898955934,1082.0556432997207,1189.3320565644576,917.1819510251074,1507.057335364122
1533223082.936,1015.943707578305,1039.3390839509175,1219.2034310915699,880.8599388920869,776.4710741668173
1533223082.94,942.1674242895988,953.9059652533107,911.0842869762831,880.8599388920869,441.17510390582646
1533223082.944,828.6493555015879,982.3933908395093,916.0622829436716,808.2159146260461,719.99690218654
1533223082.948,964.868713286423,1039.3390839509175,991.2941446210491,681.0795731302308,938.8243797919301
1533223082.951,1032.9725802768955,1025.0807921273238,1343.6680580750012,835.4620732409335,1062.3476263004363
1533223082.955,930.8109678892417,996.6225246021141,1469.7935275910204,899.0302439888411,832.9380179156879
1533223082.9589999,805.9480665047637,1124.743044587535,1275.6278938034002,935.3522561218616,907.0563027596355
1533223082.9629998,732.1601594121677,1181.7178957599322,992.4009953402432,944.4281096399947,1238.8248960941735
1533223082.967,794.5916101044066,1096.2847770623255,796.0227930218286,880.8599388920869,864.7060949479826
1533223082.971,1044.3290366772526,1039.3390839509175,1147.2909886641805,962.5984147367489,448.2370859901386
1533223082.975,1021.6277476804285,1053.5682177135222,1306.6061190497064,1017.0907319665234,296.46591114438394
1533223082.9789999,891.0808061938269,925.4185396671122,1156.1412627873574,998.9204268697692,568.2329555721919
1533223082.9829998,885.4083898955934,840.0145790304946,1046.6117566136852,926.2764026037285,847.0547538529055
1533223082.9870002,930.8109678892417,882.7311383792979,958.6573426573426,1044.3182925209228,843.5273769264527
1533223082.9910002,1095.4040309691347,868.472846555704,1293.3295749573474,1171.4546340167383,818.8212819784702
1533223082.994,1208.9220997571456,911.1894059045073,1463.154689091044,1162.3787804986052,709.4075431757751
1533223082.998,1152.16306536314,882.7311383792979,1180.4806495336873,1116.9809148474517,663.5299584376694
1533223083.002,902.437262594184,882.7311383792979,1036.1017728655145,1026.1665854846567,755.2923561452875
1533223083.006,783.2467775079394,953.9059652533107,983.5495883094726,926.2764026037285,723.5242791129928
1533223083.01,902.437262594184,1010.8516583647189,1322.0940987652657,908.1060975069743,1147.0552701551487
1533223083.014,936.4833841874754,968.1350990159156,1543.3656796434038,880.8599388920869,903.5289258331827
1533223083.018,862.7071008987691,911.1894059045073,1396.7731015368431,835.4620732409335,688.236053385652
1533223083.022,703.7864541171098,797.2980196816912,1042.739478457897,826.3862197228003,861.1714897901231
1533223083.026,635.6825871266371,683.406633458875,718.024371000263,835.4620732409335,624.7071275524692
1533223083.03,822.9769392033543,783.0688859190866,1066.5271392060206,844.5379267590665,441.17510390582646
1533223083.034,885.4083898955934,896.9602721419027,1609.7472671976047,799.1400611079131,645.8786173425924
1533223083.0370002,754.8614484089918,911.1894059045073,1350.3068965749776,690.1554266483638,719.99690218654
1533223083.0410001,624.3261307262802,1010.8516583647189,1095.8445219197388,799.1400611079131,921.1730386968532
1533223083.045,544.8658073354505,1067.797351476127,1111.8876263562859,762.8180489748926,850.589359010765
1533223083.049,726.487743113934,1067.797351476127,1233.5868259031229,889.9543904707081,550.5888427085216
1533223083.053,913.7820951906511,1096.2847770623255,1605.3209972284226,1062.488597617677,854.1167359372176
1533223083.0570002,732.1601594121677,1082.0556432997207,1595.9178641994456,989.8445733516362,1115.2944213542607
1533223083.061,499.4632293418021,1039.3390839509175,1238.0119629647113,962.5984147367489,737.648243281617
1533223083.065,454.06065134815367,939.676831490706,958.1033508439488,971.674268254882,568.2329555721919
1533223083.069,499.4632293418021,868.472846555704,1035.5489139597144,1017.0907319665234,892.9395668224179
1533223083.073,629.9985470245138,982.3933908395093,1415.5816334099845,962.5984147367489,967.0578516663655
1533223083.0770001,488.1067729414451,1025.0807921273238,1557.7479415473629,871.7840853739539,998.8187004672535
1533223083.08,232.70855387425536,996.6225246021141,1253.5010755878643,899.0302439888411,1005.8806825515657
1533223083.0839999,227.02451377213194,1039.3390839509175,1007.8901079633963,935.3522561218616,825.8832640627824
1533223083.0879998,397.30161695414824,1110.5139108249302,1088.1010985157561,908.1060975069743,465.881198853809
1533223083.092,499.4632293418021,1067.797351476127,1536.7279740510212,962.5984147367489,617.645145468157
1533223083.096,391.6175768520248,1110.5139108249302,1518.4723010836801,962.5984147367489,1245.879649947079
1533223083.1,244.05338647072256,1139.0013364111287,1142.3118597891983,771.8939024930257,1245.879649947079
1533223083.1039999,0.0,1010.8516583647189,1020.6126602423614,635.6817074790772,716.4695252600873
1533223083.1079998,119.19048508624455,953.9059652533107,1101.9305015139153,590.2652437674357,900.00154890673
1533223083.1120002,255.40984287107955,882.7311383792979,1498.5580513989385,690.1554266483638,1012.9426646358778
1533223083.1160002,261.08225916931315,925.4185396671122,1403.4119400368195,744.6477438781384,861.1714897901231
1533223083.12,232.70855387425536,925.4185396671122,1039.4211921155027,799.1400611079131,532.9375016134445
1533223083.123,147.56419038130227,811.527153444296,1002.910979088414,908.1060975069743,328.2339881766786
1533223083.127,346.2149988583764,896.9602721419027,1096.951372638933,998.9204268697692,794.1151870304876
1533223083.131,647.0274197231043,968.1350990159156,1463.7075479968441,1062.488597617677,977.6472106771304
1533223083.135,669.7287087199286,1053.5682177135222,1595.3638723860518,1098.8106097506975,1267.0583679686088
1533223083.139,556.2222637358076,1053.5682177135222,1291.6698653323533,1107.8864632688305,1256.469008957844
1533223083.143,465.40548394462087,968.1350990159156,986.8690075594608,1017.0907319665234,734.1136381237576
1533223083.147,567.5670963322748,1025.0807921273238,973.5924634671019,971.674268254882,931.762397707618
1533223083.151,720.8153268157005,1010.8516583647189,1338.1372032018126,1107.8864632688305,1224.7009319255492
1533223083.155,794.5916101044066,939.676831490706,1513.4943051162916,1262.2689633795333,1238.8248960941735
1533223083.159,635.6825871266371,982.3933908395093,1251.2873741494764,1262.2689633795333,716.4695252600873
1533223083.1629999,454.06065134815367,911.1894059045073,864.6169491068238,1126.0567683655847,723.5242791129928
1533223083.1660001,607.2972580276895,768.8105940954928,756.1942936523458,1044.3182925209228,991.763946614348
1533223083.17,754.8614484089918,783.0688859190866,1234.6925437147231,1053.412744099544,959.9958695820534
1533223083.174,783.2467775079394,982.3933908395093,1512.3874543970976,1098.8106097506975,1041.1761365103132
1533223083.178,845.6782282001785,1082.0556432997207,1094.7388041081388,1062.488597617677,864.7060949479826
1533223083.1820002,669.7287087199286,996.6225246021141,882.3186302607711,1026.1665854846567,670.5847122905749
1533223083.186,522.1645183386263,1010.8516583647189,949.253076720772,980.750121773015,931.762397707618
1533223083.19,811.6204828029972,1039.3390839509175,1169.4178068797162,1062.488597617677,719.99690218654
1533223083.194,942.1674242895988,896.9602721419027,1388.4756863194664,1107.8864632688305,494.11467072824433
1533223083.198,715.131286713577,825.7854452678899,1312.1369739228949,1053.412744099544,659.99535327981
1533223083.2020001,510.8080619382693,868.472846555704,1080.3565422041797,1053.412744099544,811.7665281255647
1533223083.206,527.83693463686,982.3933908395093,885.0840576973653,1116.9809148474517,1058.8202493739836
1533223083.2089999,749.1890321107583,982.3933908395093,1004.5706887134081,1135.1326218837178,1150.5826470816016
1533223083.2129998,936.4833841874754,953.9059652533107,1292.2227242381534,1180.5490855953594,832.9380179156879
1533223083.217,925.1385515910082,1010.8516583647189,1161.6732505681396,1189.6249391134925,942.351756718383
1533223083.221,743.5166158125246,1025.0807921273238,891.7228961973417,1062.488597617677,945.8791336448356
1533223083.225,624.3261307262802,925.4185396671122,878.4463521049828,1098.8106097506975,624.7071275524692
1533223083.2289999,828.6493555015879,854.2437127930993,1042.739478457897,1180.5490855953594,515.2933887497741
1533223083.2329998,925.1385515910082,896.9602721419027,1429.4110364081434,1189.6249391134925,850.589359010765
1533223083.2370002,874.0519334952363,840.0145790304946,1378.5185614770958,1244.1172563432672,882.3502078116529
1533223083.2410002,834.3217717998215,797.2980196816912,981.3370197786784,1225.9469512465128,441.17510390582646
1533223083.245,692.4299977167528,854.2437127930993,776.6614022428873,1135.1326218837178,652.9405994269046
1533223083.2489998,783.2467775079394,896.9602721419027,855.7655420760532,1153.302926980472,751.7649792188347
1533223083.252,1010.2712912800714,939.676831490706,1171.0775165047103,1216.8710977283797,571.7603324986447
1533223083.256,1089.731614670901,1096.2847770623255,1247.416228901282,1180.5490855953594,437.6477269793737
1533223083.26,1015.943707578305,1238.6635888713402,927.1262585052364,1080.6589027144312,621.1725223946098
1533223083.264,959.1962969881894,1124.743044587535,763.3848581505283,998.9204268697692,875.2954539587474
1533223083.268,1078.375158270544,1082.0556432997207,914.9565651320714,1007.9962803879024,900.00154890673
1533223083.272,1174.8643543599644,1139.0013364111287,1354.732033636566,1107.8864632688305,1065.8822314582958
1533223083.276,1095.4040309691347,1039.3390839509175,1224.1825599665522,1126.0567683655847,861.1714897901231
1533223083.28,913.7820951906511,925.4185396671122,746.237168809975,1080.6589027144312,642.3512404161396
1533223083.284,913.7820951906511,1082.0556432997207,737.3857617792044,1098.8106097506975,628.234504478922
1533223083.2879999,1044.3290366772526,1167.4596039363385,827.553877173935,1026.1665854846567,296.46591114438394
1533223083.292,1112.4329036677252,1025.0807921273238,1273.415325272606,1062.488597617677,811.7665281255647
1533223083.295,1140.818232766673,953.9059652533107,1494.1329143373503,1126.0567683655847,1680.0
1533223083.299,1118.1053199659589,1039.3390839509175,1145.0772872257926,1126.0567683655847,1355.293388749774
1533223083.303,993.2424185814808,1025.0807921273238,648.8773560094679,1198.7007926316255,956.4684926556006
1533223083.3070002,1015.943707578305,996.6225246021141,573.0926354262901,1216.8710977283797,1079.9989673955133
1533223083.311,1294.0548394462087,996.6225246021141,1093.6319533889448,1289.5151219944205,854.1167359372176
1533223083.315,1379.187579135272,939.676831490706,1292.7767160515473,1371.2535978390824,582.3496915094096
1533223083.319,1191.8932270585549,939.676831490706,1086.9942477965621,1416.651463490236,857.6441128636704
1533223083.323,1135.1341926645496,968.1350990159156,889.5103276665475,1235.022804764646,1069.4096083847485
1533223083.3270001,1174.8643543599644,968.1350990159156,767.2571363063166,1126.0567683655847,705.8801662493223
1533223083.331,1180.5483944620878,996.6225246021141,1111.8876263562859,1216.8710977283797,532.9375016134445
1533223083.335,1197.5656433567885,1010.8516583647189,1354.179174730766,1171.4546340167383,1083.526344321966
1533223083.3379998,1146.4906490649064,939.676831490706,1063.2077199560324,1071.56445113581,907.0563027596355
1533223083.342,1027.300163978662,939.676831490706,823.1287401123467,1107.8864632688305,762.3543382295996
1533223083.346,1050.0014529754862,1039.3390839509175,713.5992339386746,1135.1326218837178,564.7055786457393
1533223083.35,1180.5483944620878,1082.0556432997207,916.0622829436716,1107.8864632688305,331.7613651031314
1533223083.3539999,1242.9798451543268,1124.743044587535,1262.9042086168413,1098.8106097506975,769.4090920825051
1533223083.3579998,1163.519521763497,1139.0013364111287,976.35902381129,1116.9809148474517,1012.9426646358778
1533223083.3620002,1015.943707578305,1167.4596039363385,569.773216176302,1107.8864632688305,790.5878101040349
1533223083.3660002,1010.2712912800714,1124.743044587535,848.5749775778705,1135.1326218837178,917.6456617704004
1533223083.37,1214.594516055379,1067.797351476127,1266.7764867726296,1162.3787804986052,815.2939050520174
1533223083.3739998,1237.2958050522034,1195.947029522537,1498.0051924931386,1298.5909755125538,719.99690218654
1533223083.3779998,1032.9725802768955,1238.6635888713402,1354.179174730766,1253.1931098614002,921.1730386968532
1533223083.381,885.4083898955934,1124.743044587535,967.5076167805194,1107.8864632688305,652.9405994269046
1533223083.385,1010.2712912800714,1124.743044587535,786.618527085258,1216.8710977283797,702.3527893228696
1533223083.389,1231.6233887539697,1039.3390839509175,1047.7186073328792,1534.7119514679184,875.2954539587474
1533223083.393,1339.4574174398572,1238.6635888713402,1389.0296781328605,1543.7878049860515,868.2334718744353
1533223083.397,1101.0880710712581,1381.0132426193659,1265.6707689610294,1107.8864632688305,1030.5867774995481
1533223083.401,845.6782282001785,1139.0013364111287,846.3624090470763,935.3522561218616,1012.9426646358778
1533223083.405,879.7359735973597,953.9059652533107,685.9404279423566,953.5225612186158,659.99535327981
1533223083.409,1004.5988749818378,1039.3390839509175,978.5715923420842,998.9204268697692,748.2303740609754
1533223083.4129999,1050.0014529754862,1181.7178957599322,1417.7942019407785,853.6137802771997,924.7004156233058
1533223083.417,964.868713286423,1281.3509901591547,1136.2270131026157,672.0037196120976,719.99690218654
1533223083.421,851.3506444984121,1409.5006682055646,670.4513153192034,590.2652437674357,582.3496915094096
1533223083.424,828.6493555015879,1366.7841088567611,753.4277333081576,454.05304875348713,525.882747760539
1533223083.428,902.437262594184,1423.7298019681693,937.0833833476071,317.8408537395386,303.5278932286961
1533223083.4320002,953.512256886066,1295.6092819827484,1308.8186875805004,363.2387193906921,374.118801146191
1533223083.436,828.6493555015879,1238.6635888713402,1364.1362995731365,308.7650002214055,649.4132225004518
1533223083.44,749.1890321107583,1480.6754950795773,1077.5899818599914,108.96603639906131,967.0578516663655
1533223083.444,766.2179048093489,1537.6503462519745,659.9413315710326,63.568170747907715,797.6425639569404
1533223083.448,834.3217717998215,1551.8794800145793,722.4506409694452,0.0,652.9405994269046
1533223083.4520001,987.5700022832472,1680.0,1351.4126143865778,99.89018288092807,910.5836796860882
1533223083.456,1038.656620379019,1651.5417324747907,1300.521272363124,163.4583536288359,1034.114154426001
1533223083.46,959.1962969881894,1594.5960393633825,841.383280172094,263.34853650976396,963.5304747399127
1533223083.464,851.3506444984121,1437.988093791763,841.9361390778942,335.9925607758048,1065.8822314582958
1533223083.467,964.868713286423,1395.2715344429594,979.6773101536843,354.162865872559,1041.1761365103132
1533223083.471,1050.0014529754862,1366.7841088567611,1299.9672805497298,435.90134171722093,938.8243797919301
1533223083.475,1072.7027419723104,1224.4052970477464,1376.8588518521017,526.6970730195279,1065.8822314582958
1533223083.4789999,1055.67386927372,1124.743044587535,1123.5044608236508,653.8334145153434,1242.3522730206262
1533223083.4829998,959.1962969881894,1238.6635888713402,834.7455745797115,644.7575609972102,991.763946614348
1533223083.4870002,1078.375158270544,1338.3258413315518,782.7462489294697,572.1135367311695,787.0604331775821
1533223083.4910002,1271.3535504493846,1267.12185639655,1146.1841379449866,662.9278660939644,1199.9948369775666
1533223083.495,1311.0837121447994,1295.6092819827484,1173.2900850355045,771.8939024930257,652.9405994269046
1533223083.4989998,1339.4574174398572,1338.3258413315518,808.1924863949936,835.4620732409335,243.5263443219661
1533223083.5029998,1231.6233887539697,1338.3258413315518,811.5119056449819,762.8180489748926,801.1771691147998
1533223083.5070002,1135.1341926645496,1309.8384157453531,950.9127863457661,699.249878226985,924.7004156233058
1533223083.51,1373.5151628370384,1252.892722633945,1263.4582004302351,699.249878226985,945.8791336448356
1533223083.514,1418.9177408306869,1224.4052970477464,1432.1764638447378,780.9697560111589,924.7004156233058
1533223083.518,1390.544035535629,1267.12185639655,1144.5244283199925,899.0302439888411,667.0573353641222
1533223083.522,1345.1414575419806,1281.3509901591547,838.6178527354998,899.0302439888411,589.4116735937217
1533223083.526,1322.4401685451564,1224.4052970477464,775.0016926178932,862.7082318558207,709.4075431757751
1533223083.53,1328.11258484339,1181.7178957599322,1037.2086235847084,926.2764026037285,691.7634303121047
1533223083.534,1362.1703302405713,1110.5139108249302,1237.4579711513175,1080.6589027144312,716.4695252600873
1533223083.5379999,1350.8138738402142,1053.5682177135222,1052.1437443944676,1162.3787804986052,571.7603324986447
1533223083.542,1265.681134151151,1039.3390839509175,804.8742000525992,1107.8864632688305,677.646694374887
1533223083.546,1242.9798451543268,996.6225246021141,869.0420861684121,1017.0907319665234,1185.878101040349
1533223083.55,1311.0837121447994,1025.0807921273238,1153.9286942565632,1007.9962803879024,921.1730386968532
1533223083.553,1435.9466135292776,1010.8516583647189,1424.433040440755,1089.7347562325642,751.7649792188347
1533223083.5570002,1413.2453245324532,1067.797351476127,1246.862237087888,1089.7347562325642,836.4653948421405
1533223083.561,1123.7893600680823,1025.0807921273238,933.7639640976189,1062.488597617677,935.2897746340708
1533223083.565,1129.461776366316,882.7311383792979,793.8102244910345,1007.9962803879024,861.1714897901231
1533223083.569,1407.5729082342195,840.0145790304946,1042.186619552097,971.674268254882,942.351756718383
1533223083.573,1384.8716192373954,783.0688859190866,1371.8808558847131,1044.3182925209228,600.0010326044867
1533223083.5770001,1197.5656433567885,882.7311383792979,1126.2698882602451,1044.3182925209228,324.7066112502259
1533223083.581,1089.731614670901,1010.8516583647189,830.3193046105293,971.674268254882,575.2949376565041
1533223083.585,1112.4329036677252,1025.0807921273238,732.4077658118159,1071.56445113581,744.7029971345225
1533223083.589,1220.2669323536127,1096.2847770623255,897.2537510705303,1189.6249391134925,903.5289258331827
1533223083.593,1441.619029827511,1110.5139108249302,1448.2195682812849,1126.0567683655847,751.7649792188347
1533223083.596,1294.0548394462087,925.4185396671122,1294.4352927689476,1071.56445113581,600.0010326044867
1533223083.6,981.8975859850136,868.472846555704,843.0429897970881,1017.0907319665234,892.9395668224179
1533223083.6039999,959.1962969881894,1110.5139108249302,898.3606017897242,935.3522561218616,892.9395668224179
1533223083.6079998,1191.8932270585549,1195.947029522537,1061.5480103310383,908.1060975069743,882.3502078116529
1533223083.6120002,1401.900491935986,1224.4052970477464,1432.7304556581316,917.1819510251074,938.8243797919301
1533223083.6160002,1333.7850011416235,1210.1761632851417,1471.4521043084205,889.9543904707081,889.4121898959651
1533223083.62,1157.8354816613737,1210.1761632851417,1096.951372638933,953.5225612186158,808.2319229677053
1533223083.6239998,1106.7604873694916,1195.947029522537,855.2126831702531,1026.1665854846567,818.8212819784702
1533223083.6279998,1305.4112958465657,1139.0013364111287,1003.463837994214,1007.9962803879024,1274.1131218215144
1533223083.6320002,1498.3780642215165,1110.5139108249302,1257.9262126494527,1107.8864632688305,945.8791336448356
1533223083.6360002,1538.1082259169314,1124.743044587535,1152.8218435373692,1098.8106097506975,458.81921676949685
1533223083.639,1435.9466135292776,1338.3258413315518,831.4261553297233,953.5225612186158,363.52944213542605
1533223083.643,1549.4646823172884,1509.162920665776,772.2362651812989,1162.3787804986052,504.70402973900923
1533223083.647,1680.0,1381.0132426193659,919.3817021936597,1480.2196342381437,592.9390505201745
1533223083.651,1447.3030699296344,968.1350990159156,1418.3470608465786,1180.5490855953594,843.5273769264527
1533223083.655,1203.249683458912,740.3523265702833,1557.7479415473629,1035.2424390027898,1185.878101040349
1533223083.659,1135.1341926645496,626.4609403474669,1194.86404434524,1171.4546340167383,1069.4096083847485
1533223083.6629999,1152.16306536314,654.9192078726766,897.8077428839242,1144.227073462339,959.9958695820534
1533223083.667,1271.3535504493846,811.527153444296,879.5532028241768,1171.4546340167383,889.4121898959651
1533223083.671,1418.9177408306869,654.9192078726766,1261.798490805241,1307.6854270911747,921.1730386968532
1533223083.675,1430.274197231044,669.1483416352813,1378.5185614770958,1362.1591462604615,751.7649792188347
1533223083.679,1225.950972455736,797.2980196816912,978.018733436284,1380.3294513572157,444.7024808322792
1533223083.6829998,1135.1341926645496,711.8649009840847,648.3244971036678,1389.4053048753487,419.99638588429667
1533223083.686,1288.3824231479753,825.7854452678899,802.6604986142113,1262.2689633795333,748.2303740609754
1533223083.69,1447.3030699296344,911.1894059045073,1278.3933212399943,1253.1931098614002,917.6456617704004
1533223083.694,1418.9177408306869,939.676831490706,1509.6220269605033,1262.2689633795333,1012.9426646358778
1533223083.698,1339.4574174398572,911.1894059045073,1020.6126602423614,1225.9469512465128,1076.4715904690606
1533223083.7020001,1305.4112958465657,768.8105940954928,661.0470493826328,1171.4546340167383,967.0578516663655
1533223083.706,1367.842746538805,726.1231928076784,869.5949450742122,1153.302926980472,829.410640989235
1533223083.71,1549.4646823172884,840.0145790304946,1209.2463062491993,1189.6249391134925,635.2892583318275
1533223083.714,1549.4646823172884,868.472846555704,1487.4952087449676,1334.912987645574,945.8791336448356
1533223083.718,1373.5151628370384,840.0145790304946,1231.9271162781288,1425.727317008369,758.8197330717402
1533223083.7220001,1197.5656433567885,882.7311383792979,891.7228961973417,1344.0074392241952,762.3543382295996
1533223083.726,1271.3535504493846,882.7311383792979,706.4075365328981,1307.6854270911747,1019.9974184887833
1533223083.7289999,1424.6017809328102,868.472846555704,963.082479718931,1325.837134127441,970.5852285928182
1533223083.7329998,1452.975486227868,854.2437127930993,1478.643801714197,1407.575609972103,1002.353305625113
1533223083.7370002,1396.2164518338627,854.2437127930993,1117.4184812294745,1280.4392684762875,970.5852285928182
1533223083.7410002,1186.2208107603212,996.6225246021141,601.8571592342084,1098.8106097506975,451.76446291659136
1533223083.745,1123.7893600680823,1167.4596039363385,788.8310956160523,1162.3787804986052,504.70402973900923
1533223083.7489998,1362.1703302405713,1096.2847770623255,1062.6548610502323,1253.1931098614002,525.882747760539
1533223083.7529998,1504.06210432364,896.9602721419027,1410.0496456292021,1207.7766461497586,628.234504478922
1533223083.7570002,1339.4574174398572,854.2437127930993,1314.903534267083,1089.7347562325642,1122.3491752071664
1533223083.7610002,1242.9798451543268,968.1350990159156,903.8925895705066,1080.6589027144312,1048.2308903632186
1533223083.765,1214.594516055379,925.4185396671122,760.6194307139341,1080.6589027144312,896.4669437488706
1533223083.769,1220.2669323536127,911.1894059045073,998.4858420268256,1116.9809148474517,1154.1172522394609
1533223083.772,1299.7272557444423,1025.0807921273238,1242.4371000262997,1180.5490855953594,1087.053721248419
1533223083.776,1265.681134151151,1110.5139108249302,1147.8438475699807,1216.8710977283797,1094.115703332731
1533223083.78,1152.16306536314,1053.5682177135222,934.3168230034189,1062.488597617677,1245.879649947079
1533223083.784,1078.375158270544,911.1894059045073,735.7260521542103,1053.412744099544,762.3543382295996
1533223083.7879999,1220.2669323536127,911.1894059045073,876.2337835741886,1198.7007926316255,712.9421483336345
1533223083.792,1350.8138738402142,953.9059652533107,1344.7749087941952,1189.6249391134925,1065.8822314582958
1533223083.796,1248.6522614525604,825.7854452678899,1161.6732505681396,1307.6854270911747,762.3543382295996
1533223083.8,1027.300163978662,811.527153444296,653.8564848844502,1452.9734756232565,479.9979347910267
1533223083.804,970.5411295846566,896.9602721419027,656.6219123210444,1607.3559757339592,423.5309910421561
1533223083.8079998,1231.6233887539697,939.676831490706,908.8705855378951,1652.7538413851128,808.2319229677053
1533223083.812,1305.4112958465657,939.676831490706,1322.6480905786595,1625.5076827702253,1305.881198853809
1533223083.815,1169.1919380617308,868.472846555704,1236.9051122455173,1607.3559757339592,864.7060949479826
1533223083.819,1174.8643543599644,868.472846555704,787.172518898652,1680.0,465.881198853809
1533223083.823,1106.7604873694916,911.1894059045073,538.2421320241957,1580.109817119072,575.2949376565041
1533223083.8270001,936.4833841874754,939.676831490706,708.6212379712862,1362.1591462604615,543.5268606242095
1533223083.831,1089.731614670901,1025.0807921273238,1256.2665030244586,1307.6854270911747,772.9364690089578
1533223083.835,1146.4906490649064,1025.0807921273238,1321.5412398594656,1271.3448168976663,832.9380179156879
1533223083.839,868.3795171970028,1039.3390839509175,792.7033737718405,1225.9469512465128,931.762397707618
1533223083.843,686.7575814185192,968.1350990159156,607.3891470149908,1189.6249391134925,737.648243281617
1533223083.8470001,771.8903211075825,825.7854452678899,796.0227930218286,1107.8864632688305,455.2918398430441
1533223083.851,919.4661352927745,968.1350990159156,1182.6943509720752,1107.8864632688305,663.5299584376694
1533223083.855,930.8109678892417,1082.0556432997207,1354.732033636566,1053.412744099544,857.6441128636704
1533223083.8579998,737.8441995142911,1025.0807921273238,1023.3792205865494,989.8445733516362,691.7634303121047
1533223083.8620002,573.2395126305083,982.3933908395093,773.343115900493,953.5225612186158,991.763946614348
1533223083.8660002,556.2222637358076,882.7311383792979,659.3884726652326,899.0302439888411,1143.527893228696
1533223083.87,647.0274197231043,911.1894059045073,875.1269328549946,962.5984147367489,681.1740713013398
1533223083.8739998,698.1140378188762,1110.5139108249302,1194.3111854394401,1007.9962803879024,645.8786173425924
1533223083.8779998,624.3261307262802,1167.4596039363385,877.8934931991827,926.2764026037285,794.1151870304876
1533223083.8820002,488.1067729414451,1153.2304701737337,615.6865622323675,862.7082318558207,730.5862611973049
1533223083.8860002,465.40548394462087,1153.2304701737337,797.1296437410227,962.5984147367489,497.6420476546971
1533223083.89,749.1890321107583,1210.1761632851417,1166.098387629728,1107.8864632688305,956.4684926556006
1533223083.894,930.8109678892417,1139.0013364111287,1417.7942019407785,1180.5490855953594,1044.703513436766
1533223083.8979998,794.5916101044066,925.4185396671122,1105.2487878563095,1198.7007926316255,472.9359527067145
1533223083.901,715.131286713577,882.7311383792979,727.4286369368336,1225.9469512465128,360.0020652089733
1533223083.905,828.6493555015879,896.9602721419027,685.3875690365566,1180.5490855953594,769.4090920825051
1533223083.909,959.1962969881894,1025.0807921273238,959.2102015631427,1244.1172563432672,910.5836796860882
1533223083.9129999,1061.3579093758433,1053.5682177135222,1163.3329601931337,1280.4392684762875,670.5847122905749
1533223083.917,930.8109678892417,982.3933908395093,853.552973545259,1071.56445113581,829.410640989235
1533223083.921,743.5166158125246,1067.797351476127,560.3689502397314,1044.3182925209228,1062.3476263004363
1533223083.925,794.5916101044066,1082.0556432997207,698.6641131289155,1135.1326218837178,1016.4700415623306
1533223083.929,930.8109678892417,968.1350990159156,905.5522991955007,1089.7347562325642,928.2350207811653
1533223083.9329998,1123.7893600680823,982.3933908395093,1265.1179100552292,1162.3787804986052,967.0578516663655
1533223083.937,1061.3579093758433,1096.2847770623255,1187.6723469394635,1207.7766461497586,945.8791336448356
1533223083.941,947.8398405878323,1167.4596039363385,744.0246002791808,1216.8710977283797,758.8197330717402
1533223083.944,1010.2712912800714,1181.7178957599322,544.8798376165782,1344.0074392241952,670.5847122905749
1533223083.948,1112.4329036677252,1139.0013364111287,725.2160684060394,1353.0832927423282,550.5888427085216
1533223083.9520001,1197.5656433567885,1067.797351476127,1102.4833604197154,1271.3448168976663,529.4101246869918
1533223083.956,1231.6233887539697,1210.1761632851417,1016.740382086573,1353.0832927423282,451.76446291659136
1533223083.96,1157.8354816613737,1381.0132426193659,565.9009380205138,1325.837134127441,585.884296667269
1533223083.964,1010.2712912800714,1238.6635888713402,365.650457546311,1198.7007926316255,1062.3476263004363
1533223083.968,1180.5483944620878,1181.7178957599322,641.1327996978913,1398.4811583934818,1023.5247954152361
1533223083.9720001,1362.1703302405713,1352.5549750941564,1109.1210660120978,1471.1437807200107,649.4132225004518
1533223083.976,1322.4401685451564,1324.067549507958,994.6135638710374,1334.912987645574,455.2918398430441
1533223083.98,1220.2669323536127,1338.3258413315518,622.3254007323438,1389.4053048753487,614.1177685417043
1533223083.984,1163.519521763497,1395.2715344429594,483.47737893735973,1271.3448168976663,1147.0552701551487
