timestamps,TP9,AF7,AF8,TP10,Right AUX
1533059825.342,760.7538420773715,982.6472255139369,1307.842588271893,803.689932363044,1240.3260919912918
1533059825.346,892.0733969263381,993.2072749755268,1297.2157411728108,847.2679627465562,1066.6265227662236
1533059825.35,742.6417594064653,1014.349013344325,1286.5888940737284,871.4713693827686,901.0644309602112
1533059825.3539999,606.7872284048755,982.6472255139369,1318.4694353709754,856.9453592549311,1093.7625642688406
1533059825.3579998,543.3995760466348,950.9454376835489,1329.1180587960803,837.5806508729063,920.0629950437723
1533059825.3620002,815.0900900900901,972.0655366067289,1190.8819412039197,905.3620878926307,572.6638565936356
1533059825.3660002,905.6597774244833,1067.1709000978926,1052.6458236117592,910.2007861468182,502.10014359164387
1533059825.37,724.5296767355591,1098.8726879282806,1031.3921294135946,905.3620878926307,453.2474871462319
1533059825.3739998,534.3388977212506,834.719975269205,1010.1166588894074,905.3620878926307,727.3648617351429
1533059825.3779998,398.49364069952304,676.2326755628832,1020.7652823145123,885.9973795106059,882.0658668766501
1533059825.381,692.8312135665077,813.578236900407,1073.9212941359465,948.9302029108679,1275.60516929918
1533059825.385,887.5476947535772,898.123550929981,1073.9212941359465,992.5082332943801,1196.8984204919172
1533059825.389,738.1160572337043,1003.7673244371168,1169.6064706797324,934.4141081483056,713.7968409838344
1533059825.393,543.3995760466348,982.6472255139369,1137.725929382486,856.9453592549311,719.2273843160868
1533059825.397,439.24350821409644,993.2072749755268,1063.2944470368643,832.7419526187188,819.6451896799296
1533059825.401,733.581081081081,1130.5744757586688,1095.174988334111,919.8880980204682,849.4992820417806
1533059825.405,896.5990990990991,1088.3126384666907,1020.7652823145123,934.4141081483056,702.9413127055445
1533059825.409,706.4175940646529,929.8036993147509,946.333799968891,866.632671128581,1015.0558154615777
1533059825.4129999,538.8645998940117,972.0655366067289,988.8629646912428,842.4193491270937,901.0644309602112
1533059825.417,384.9072602013778,1119.9927868514606,1095.174988334111,803.689932363044,849.4992820417806
1533059825.421,579.6237413884472,1035.4691122675047,1105.823611759216,769.7992138531818,1183.3303997406088
1533059825.424,855.8492315845257,803.018187438817,946.333799968891,813.377244236694,1153.4763073787576
1533059825.428,729.0553789083201,855.840074192385,914.4314823456214,784.3252239810191,998.7753022372505
1533059825.4320002,534.3388977212506,972.0655366067289,1105.823611759216,726.2211834696697,1039.4849228773912
1533059825.436,348.6738208797032,855.840074192385,1020.7652823145123,658.4496618152201,1148.0457640465052
1533059825.44,461.8812930577636,781.876449070019,946.333799968891,648.7623499415702,939.0615591273333
1533059825.444,792.4523052464228,813.578236900407,1095.174988334111,784.3252239810191,800.6466255963685
1533059825.448,760.7538420773715,813.578236900407,1105.823611759216,808.5286306172314,949.9226457918385
1533059825.4520001,575.0980392156863,845.280024730795,1127.0773059573805,769.7992138531818,901.0644309602112
1533059825.456,434.71780604133545,961.5054871451389,999.4898117903251,745.5958072169694,1085.6250868497846
1533059825.46,575.0980392156863,1056.6108506363025,956.9606470679732,779.4865257268317,1202.3289638241697
1533059825.4629998,910.1854795972444,1014.349013344325,1042.018976512677,818.2159424908814,871.2103385983603
1533059825.467,842.2628510863805,898.123550929981,967.5874941670555,784.3252239810191,751.7939691509565
1533059825.471,674.7191308956014,887.541862022773,999.4898117903251,813.377244236694,1039.4849228773912
1533059825.475,538.8645998940117,898.123550929981,1010.1166588894074,827.8933389992563,1378.7410255222567
1533059825.4789999,566.037360890302,919.243649853161,988.8629646912428,852.1066610007437,1066.6265227662236
1533059825.4829998,905.6597774244833,908.683600391571,903.7828589205164,958.6175147845179,960.7781740701283
1533059825.4870002,896.5990990990991,834.719975269205,850.6268470990823,973.1435249123552,1004.2002871832877
1533059825.4910002,701.8826179120297,887.541862022773,850.6268470990823,885.9973795106059,1069.3390152392421
1533059825.495,543.3995760466348,919.243649853161,754.9416705552964,856.9453592549311,993.3447589049979
1533059825.4989998,516.2268150503445,876.981812561183,754.9416705552964,813.377244236694,651.3761637871138
1533059825.5029998,806.038685744568,813.578236900407,669.86156478457,789.1639222352067,838.6437537634906
1533059825.506,855.8492315845257,876.981812561183,669.86156478457,818.2159424908814,1126.3347074899254
1533059825.51,715.4689984101749,961.5054871451389,840.0,760.1119019795318,1215.8969845754782
1533059825.514,566.037360890302,993.2072749755268,754.9416705552964,692.3304649598074,925.4935383760248
1533059825.518,520.7525172231054,1077.7309495594827,744.2930471301913,648.7623499415702,868.4978461253417
1533059825.522,815.0900900900901,972.0655366067289,893.1560118214342,643.9236516873827,922.7810459030062
1533059825.526,932.8325384207737,898.123550929981,882.5291647223519,706.8564750876448,830.5007179582194
1533059825.53,774.3402225755167,1003.7673244371168,850.6268470990823,726.2211834696697,998.7753022372505
1533059825.534,593.2101218865924,950.9454376835489,956.9606470679732,711.7050887071072,803.3591180693871
1533059825.5379999,525.2782193958665,919.243649853161,1127.0773059573805,740.747193597507,757.2245124832091
1533059825.542,833.2114467408585,961.5054871451389,1222.7842588271892,827.8933389992563,952.6351382648571
1533059825.546,1018.8672496025437,961.5054871451389,1212.157411728107,915.0394844010057,949.9226457918385
1533059825.549,896.5990990990991,919.243649853161,1116.4504588582984,939.252806402493,716.509333456853
1533059825.553,688.3055113937467,750.1963006852491,1031.3921294135946,861.7840575091186,504.81263606466257
1533059825.5570002,538.8645998940117,750.1963006852491,1105.823611759216,803.689932363044,591.6624206771967
1533059825.561,783.3916269210387,855.840074192385,1201.5087883030021,837.5806508729063,925.4935383760248
1533059825.565,1018.8672496025437,855.840074192385,1095.174988334111,900.5233896384433,974.3461948214368
1533059825.569,851.3235294117648,866.421763099593,1244.0379530253538,866.632671128581,806.0771689286211
1533059825.573,652.072072072072,887.541862022773,1339.7449058951624,832.7419526187188,732.7954050673954
1533059825.5770001,516.2268150503445,898.123550929981,1254.686576450459,847.2679627465562,925.4935383760248
1533059825.581,697.3569157392686,855.840074192385,1286.5888940737284,866.632671128581,1042.19741535041
1533059825.585,969.0567037625862,855.840074192385,1148.3527764815678,900.5233896384433,1050.3404511556812
1533059825.5879998,887.5476947535772,845.280024730795,1095.174988334111,871.4713693827686,1134.4777432951967
1533059825.592,724.5296767355591,834.719975269205,1095.174988334111,852.1066610007437,675.7997128167123
1533059825.596,588.6751457339693,855.840074192385,1031.3921294135946,852.1066610007437,792.5035897910973
1533059825.6,806.038685744568,845.280024730795,1095.174988334111,871.4713693827686,1158.9012923247951
1533059825.6039999,1109.436936936937,855.840074192385,1116.4504588582984,900.5233896384433,1188.755384686646
1533059825.6079998,987.1687864334925,824.159925807615,1190.8819412039197,871.4713693827686,998.7753022372505
1533059825.6120002,778.8659247482777,866.421763099593,1318.4694353709754,837.5806508729063,1107.3361434063643
1533059825.6160002,552.4509803921569,845.280024730795,1180.2550941048373,760.1119019795318,1101.9056000741118
1533059825.62,593.2101218865924,718.4945128548611,1095.174988334111,702.0177768334572,705.6538051785632
1533059825.6239998,864.9099099099099,824.159925807615,1222.7842588271892,735.9084953433195,1072.051507712261
1533059825.6279998,828.6764705882352,866.421763099593,1361.0203764193498,750.434505471157,1376.0285330492381
1533059825.631,638.4856915739268,845.280024730795,1307.842588271893,687.4917667056199,1207.753948770207
1533059825.635,466.4162692103869,876.981812561183,1127.0773059573805,634.2363398137328,1080.194543517532
1533059825.639,566.037360890302,750.1963006852491,1095.174988334111,682.6530684514324,974.3461948214368
1533059825.643,873.961314255432,665.6509866556751,1052.6458236117592,740.747193597507,852.2117745147992
1533059825.647,846.7885532591415,792.458137977227,1020.7652823145123,731.0697970891321,797.9341331233499
1533059825.651,701.8826179120297,972.0655366067289,1063.2944470368643,779.4865257268317,928.2060308490435
1533059825.655,543.3995760466348,1056.6108506363025,1052.6458236117592,755.2732037253444,1080.194543517532
1533059825.659,575.0980392156863,961.5054871451389,1105.823611759216,706.8564750876448,689.3677335680208
1533059825.6629999,887.5476947535772,803.018187438817,1052.6458236117592,769.7992138531818,556.3833433693085
1533059825.667,883.0219925808161,707.9128239476531,967.5874941670555,798.8512341088566,594.3804715364306
1533059825.671,733.581081081081,739.6146117780411,999.4898117903251,774.6379121073693,692.0857844272546
1533059825.674,534.3388977212506,813.578236900407,978.2143412661378,760.1119019795318,941.7796099865673
1533059825.678,498.11473237943824,834.719975269205,1020.7652823145123,774.6379121073693,906.4949742924638
1533059825.6820002,869.4356120826709,876.981812561183,1084.5481412350289,818.2159424908814,933.636574181296
1533059825.686,955.4703232644409,972.0655366067289,1116.4504588582984,866.632671128581,1072.051507712261
1533059825.69,751.6931637519873,1003.7673244371168,1148.3527764815678,900.5233896384433,694.7982769002733
1533059825.694,538.8645998940117,929.8036993147509,1127.0773059573805,842.4193491270937,773.5050257075362
1533059825.698,470.94197138314786,972.0655366067289,1116.4504588582984,764.9605155989943,1006.9127796563065
1533059825.7020001,774.3402225755167,1024.9090628059148,1244.0379530253538,798.8512341088566,1020.4863587938302
1533059825.706,855.8492315845257,1014.349013344325,1361.0203764193498,803.689932363044,1120.904164157673
1533059825.71,665.6584525702173,1077.7309495594827,1307.842588271893,745.5958072169694,966.2031590161656
1533059825.7129998,520.7525172231054,993.2072749755268,1201.5087883030021,716.5437869612947,903.7824818194451
1533059825.717,393.95866454689985,908.683600391571,1222.7842588271892,692.3304649598074,985.2017230997267
1533059825.721,661.1327503974563,1014.349013344325,1148.3527764815678,716.5437869612947,789.7910973180786
1533059825.725,869.4356120826709,1003.7673244371168,1127.0773059573805,760.1119019795318,588.949928204178
1533059825.7289999,715.4689984101749,1024.9090628059148,1233.4111059262716,755.2732037253444,559.0958358423271
1533059825.7329998,516.2268150503445,1035.4691122675047,1233.4111059262716,702.0177768334572,485.8140719811015
1533059825.7370002,380.37228404875464,972.0655366067289,1148.3527764815678,663.2883600694075,531.9542359534948
1533059825.7410002,624.9085850556439,961.5054871451389,1190.8819412039197,682.6530684514324,854.929825374033
1533059825.745,801.5129835718071,1024.9090628059148,1190.8819412039197,692.3304649598074,1028.6293945991015
1533059825.7489998,692.8312135665077,1046.0291617290948,1158.9796235806502,682.6530684514324,974.3461948214368
1533059825.7529998,570.563063063063,982.6472255139369,1190.8819412039197,677.8143701972449,835.931261290472
1533059825.756,412.07074721780606,929.8036993147509,1127.0773059573805,677.8143701972449,1313.6022974663024
1533059825.76,661.1327503974563,887.541862022773,1116.4504588582984,745.5958072169694,1278.323220158414
1533059825.764,905.6597774244833,887.541862022773,1190.8819412039197,808.5286306172314,884.783917735884
1533059825.768,783.3916269210387,887.541862022773,1233.4111059262716,779.4865257268317,1050.3404511556812
1533059825.772,661.1327503974563,950.9454376835489,1201.5087883030021,827.8933389992563,841.3562462365094
1533059825.776,498.11473237943824,1046.0291617290948,1127.0773059573805,827.8933389992563,1058.4834869609524
1533059825.78,647.5463698993111,1024.9090628059148,1031.3921294135946,818.2159424908814,1210.4664412432257
1533059825.784,896.5990990990991,950.9454376835489,882.5291647223519,910.2007861468182,740.9384408726667
1533059825.7879999,778.8659247482777,834.719975269205,882.5291647223519,885.9973795106059,700.2288202325258
1533059825.792,556.9766825649178,813.578236900407,1010.1166588894074,750.434505471157,949.9226457918385
1533059825.795,330.561738208797,876.981812561183,1031.3921294135946,658.4496618152201,1224.0400203807494
1533059825.799,466.4162692103869,972.0655366067289,967.5874941670555,605.184319558058,1384.166010468294
1533059825.803,760.7538420773715,1067.1709000978926,861.2536941981646,643.9236516873827,1191.4734355458797
1533059825.8070002,697.3569157392686,1130.5744757586688,744.2930471301913,687.4917667056199,1069.3390152392421
1533059825.811,575.0980392156863,1151.6945746818487,754.9416705552964,721.3824852154821,1063.9084719069897
1533059825.815,407.5450450450451,1024.9090628059148,712.3907295069217,697.1790785792698,797.9341331233499
1533059825.819,475.46767355590885,898.123550929981,701.7638824078394,697.1790785792698,830.5007179582194
1533059825.823,855.8492315845257,982.6472255139369,776.1953647534609,784.3252239810191,1001.4877947102691
1533059825.8270001,815.0900900900901,1003.7673244371168,797.4708352776481,764.9605155989943,868.4978461253417
1533059825.831,643.0206677265501,972.0655366067289,861.2536941981646,735.9084953433195,808.7896614016397
1533059825.835,498.11473237943824,1088.3126384666907,967.5874941670555,716.5437869612947,930.9240817082774
1533059825.8379998,507.16613672496027,1172.8363130506466,1127.0773059573805,716.5437869612947,1137.1902357682152
1533059825.842,864.9099099099099,1109.4327373898707,1116.4504588582984,852.1066610007437,1004.2002871832877
1533059825.846,905.6597774244833,1024.9090628059148,1084.5481412350289,890.8360777647933,1074.7640001852794
1533059825.85,710.9432962374138,1014.349013344325,1127.0773059573805,856.9453592549311,933.636574181296
1533059825.8539999,507.16613672496027,972.0655366067289,1052.6458236117592,832.7419526187188,825.0757330121821
1533059825.8579998,443.7692103868574,940.3853882219589,1020.7652823145123,789.1639222352067,1164.3318356570476
1533059825.8620002,828.6764705882352,993.2072749755268,1052.6458236117592,871.4713693827686,1191.4734355458797
1533059825.8660002,932.8325384207737,1024.9090628059148,1095.174988334111,924.7267962746556,1039.4849228773912
1533059825.87,760.7538420773715,1056.6108506363025,978.2143412661378,861.7840575091186,1139.902728241234
1533059825.8739998,606.7872284048755,1003.7673244371168,786.8222118525432,784.3252239810191,963.490666543147
1533059825.8779998,480.0026497085321,887.541862022773,840.0,740.747193597507,806.0771689286211
1533059825.881,760.7538420773715,834.719975269205,871.9023176232696,794.0026204893941,882.0658668766501
1533059825.885,928.2975622681505,803.018187438817,765.5685176543786,823.0546407450689,578.0943999258882
1533059825.889,792.4523052464228,887.541862022773,829.351376574895,794.0026204893941,814.2146463476771
1533059825.893,588.6751457339693,866.421763099593,786.8222118525432,774.6379121073693,1310.8898049932836
1533059825.897,470.94197138314786,781.876449070019,691.1370353087573,755.2732037253444,1202.3289638241697
1533059825.901,697.3569157392686,781.876449070019,733.666200031109,745.5958072169694,819.6451896799296
1533059825.905,851.3235294117648,792.458137977227,914.4314823456214,755.2732037253444,689.3677335680208
1533059825.909,742.6417594064653,887.541862022773,988.8629646912428,677.8143701972449,803.3591180693871
1533059825.9129999,579.6237413884472,887.541862022773,786.8222118525432,634.2363398137328,556.3833433693085
1533059825.917,425.6571277159512,929.8036993147509,659.2347176854877,653.6010481957576,464.10301542452174
1533059825.92,643.0206677265501,1162.2762635890567,765.5685176543786,672.9657565777825,822.3576821529483
1533059825.924,864.9099099099099,1299.6218249265805,893.1560118214342,735.9084953433195,958.0601232108944
1533059825.928,719.9947005829358,1289.0617754649907,893.1560118214342,731.0697970891321,787.07860484506
1533059825.9320002,511.70111287758345,1204.5381008810346,712.3907295069217,614.8716314317079,751.7939691509565
1533059825.936,335.09671436142025,1162.2762635890567,606.0787058640535,542.2514961577959,1053.0529436286997
1533059825.94,520.7525172231054,1141.1345252202586,818.7245294758127,619.7103296858954,1148.0457640465052
1533059825.944,751.6931637519873,1098.8726879282806,946.333799968891,677.8143701972449,1224.0400203807494
1533059825.948,643.0206677265501,1024.9090628059148,861.2536941981646,668.1270583235951,1015.0558154615777
1533059825.9520001,470.94197138314786,1003.7673244371168,861.2536941981646,643.9236516873827,865.7853536523229
1533059825.956,321.51033386327504,1046.0291617290948,935.6851765437859,590.6682247954956,656.8011487331512
1533059825.96,529.8131955484897,1077.7309495594827,946.333799968891,614.8716314317079,762.6494974292464
1533059825.9629998,783.3916269210387,1077.7309495594827,871.9023176232696,658.4496618152201,974.3461948214368
1533059825.967,688.3055113937467,1077.7309495594827,818.7245294758127,648.7623499415702,958.0601232108944
1533059825.971,620.3736089030207,1056.6108506363025,850.6268470990823,697.1790785792698,928.2060308490435
1533059825.975,439.24350821409644,1035.4691122675047,935.6851765437859,692.3304649598074,846.7867895687618
1533059825.9789999,425.6571277159512,1056.6108506363025,1010.1166588894074,624.5589433053578,996.0572513780165
1533059825.9829998,742.6417594064653,982.6472255139369,1105.823611759216,653.6010481957576,879.3533744036315
1533059825.9870002,778.8659247482777,1014.349013344325,1286.5888940737284,716.5437869612947,977.0586872944555
1533059825.9910002,670.1841547429783,1109.4327373898707,1212.157411728107,750.434505471157,979.7767381536894
1533059825.995,480.0026497085321,1130.5744757586688,1169.6064706797324,735.9084953433195,1036.7668720181573
1533059825.9989998,498.11473237943824,1193.9564119738266,1222.7842588271892,668.1270583235951,1123.6222150169067
1533059826.0029998,796.9780074191839,1119.9927868514606,1169.6064706797324,648.7623499415702,898.3519384871926
1533059826.006,783.3916269210387,1014.349013344325,1212.157411728107,687.4917667056199,979.7767381536894
1533059826.01,656.6070482246953,1046.0291617290948,1201.5087883030021,735.9084953433195,936.3490666543147
1533059826.014,502.6404345521993,982.6472255139369,1095.174988334111,721.3824852154821,667.656677011441
1533059826.018,498.11473237943824,972.0655366067289,1052.6458236117592,677.8143701972449,1115.4791792116355
1533059826.022,833.2114467408585,1003.7673244371168,1084.5481412350289,731.0697970891321,1454.735281856501
1533059826.026,883.0219925808161,972.0655366067289,978.2143412661378,731.0697970891321,1110.048635879383
1533059826.03,652.072072072072,982.6472255139369,946.333799968891,672.9657565777825,773.5050257075362
1533059826.034,412.07074721780606,961.5054871451389,882.5291647223519,677.8143701972449,800.6466255963685
1533059826.0379999,380.37228404875464,993.2072749755268,754.9416705552964,663.2883600694075,822.3576821529483
1533059826.042,683.7705352411235,993.2072749755268,818.7245294758127,643.9236516873827,784.3605539858261
1533059826.045,747.1674615792263,919.243649853161,946.333799968891,668.1270583235951,1226.7525128537682
1533059826.049,584.1494435612083,950.9454376835489,978.2143412661378,658.4496618152201,1172.4748714623188
1533059826.053,393.95866454689985,972.0655366067289,956.9606470679732,648.7623499415702,667.656677011441
1533059826.0570002,344.1481187069422,982.6472255139369,1020.7652823145123,697.1790785792698,740.9384408726667
1533059826.061,674.7191308956014,908.683600391571,1095.174988334111,789.1639222352067,879.3533744036315
1533059826.065,824.1507684154743,961.5054871451389,1095.174988334111,842.4193491270937,740.9384408726667
1533059826.069,647.5463698993111,1098.8726879282806,1105.823611759216,852.1066610007437,770.7925332345176
1533059826.073,480.0026497085321,1088.3126384666907,1010.1166588894074,818.2159424908814,936.3490666543147
1533059826.0770001,430.18282988871226,1193.9564119738266,829.351376574895,745.5958072169694,1169.7568206030849
1533059826.081,715.4689984101749,1193.9564119738266,765.5685176543786,745.5958072169694,1218.609477048497
1533059826.085,923.7718600953895,1067.1709000978926,712.3907295069217,818.2159424908814,930.9240817082774
1533059826.0879998,824.1507684154743,1172.8363130506466,754.9416705552964,832.7419526187188,765.361989902265
1533059826.092,661.1327503974563,1172.8363130506466,914.4314823456214,852.1066610007437,616.0915280930103
1533059826.096,566.037360890302,1088.3126384666907,1137.725929382486,813.377244236694,806.0771689286211
1533059826.1,824.1507684154743,1183.3963625122367,1275.9402706486235,837.5806508729063,743.6509333456853
1533059826.1039999,1027.9279279279278,1162.2762635890567,1190.8819412039197,934.4141081483056,762.6494974292464
1533059826.1079998,896.5990990990991,1088.3126384666907,1148.3527764815678,900.5233896384433,977.0586872944555
1533059826.1120002,692.8312135665077,1056.6108506363025,1158.9796235806502,837.5806508729063,1063.9084719069897
1533059826.1160002,547.9252782193959,1024.9090628059148,1158.9796235806502,803.689932363044,1139.902728241234
1533059826.12,719.9947005829358,1046.0291617290948,1212.157411728107,750.434505471157,1112.7611283524018
1533059826.1239998,905.6597774244833,950.9454376835489,1212.157411728107,755.2732037253444,930.9240817082774
1533059826.127,760.7538420773715,887.541862022773,1095.174988334111,731.0697970891321,920.0629950437723
1533059826.131,584.1494435612083,972.0655366067289,1084.5481412350289,702.0177768334572,1164.3318356570476
1533059826.135,430.18282988871226,876.981812561183,1042.018976512677,745.5958072169694,1126.3347074899254
1533059826.139,556.9766825649178,729.0545623164511,1084.5481412350289,735.9084953433195,909.2074667654824
1533059826.143,846.7885532591415,739.6146117780411,1095.174988334111,764.9605155989943,879.3533744036315
1533059826.147,806.038685744568,803.018187438817,1105.823611759216,847.2679627465562,857.6423178470517
1533059826.151,575.0980392156863,887.541862022773,1169.6064706797324,794.0026204893941,1001.4877947102691
1533059826.155,380.37228404875464,887.541862022773,1127.0773059573805,716.5437869612947,1229.4650053267867
1533059826.159,511.70111287758345,887.541862022773,1084.5481412350289,745.5958072169694,1335.313354022882
1533059826.1629999,824.1507684154743,845.280024730795,1063.2944470368643,794.0026204893941,1055.7654361017185
1533059826.167,806.038685744568,866.421763099593,1222.7842588271892,798.8512341088566,1034.0543795451388
1533059826.17,624.9085850556439,908.683600391571,1212.157411728107,745.5958072169694,1191.4734355458797
1533059826.174,389.43296237413887,792.458137977227,978.2143412661378,697.1790785792698,952.6351382648571
1533059826.178,425.6571277159512,771.316399608429,1042.018976512677,706.8564750876448,675.7997128167123
1533059826.1820002,774.3402225755167,929.8036993147509,1169.6064706797324,789.1639222352067,868.4978461253417
1533059826.186,824.1507684154743,1130.5744757586688,1190.8819412039197,847.2679627465562,1023.1988512668488
1533059826.19,683.7705352411235,1257.3599876346025,1190.8819412039197,789.1639222352067,1020.4863587938302
1533059826.194,516.2268150503445,1225.6581998042147,1052.6458236117592,726.2211834696697,1148.0457640465052
1533059826.198,516.2268150503445,1225.6581998042147,1052.6458236117592,711.7050887071072,1085.6250868497846
1533059826.2020001,824.1507684154743,1204.5381008810346,1180.2550941048373,735.9084953433195,814.2146463476771
1533059826.206,864.9099099099099,1077.7309495594827,1073.9212941359465,740.747193597507,835.931261290472
1533059826.21,665.6584525702173,961.5054871451389,988.8629646912428,711.7050887071072,944.4921024595859
1533059826.2129998,484.5283518812931,887.541862022773,988.8629646912428,663.2883600694075,933.636574181296
1533059826.217,443.7692103868574,855.840074192385,956.9606470679732,648.7623499415702,892.9269535411552
1533059826.221,747.1674615792263,792.458137977227,988.8629646912428,731.0697970891321,920.0629950437723
1533059826.225,837.7371489136195,771.316399608429,956.9606470679732,789.1639222352067,901.0644309602112
1533059826.2289999,674.7191308956014,834.719975269205,1020.7652823145123,740.747193597507,814.2146463476771
1533059826.2329998,529.8131955484897,845.280024730795,1042.018976512677,706.8564750876448,1101.9056000741118
1533059826.2370002,480.0026497085321,834.719975269205,1020.7652823145123,687.4917667056199,1188.755384686646
1533059826.2410002,751.6931637519873,792.458137977227,1073.9212941359465,731.0697970891321,947.2045949326046
1533059826.245,860.3749337572867,729.0545623164511,1042.018976512677,760.1119019795318,724.6523692621242
1533059826.2489998,679.2448330683625,750.1963006852491,925.0583294447036,697.1790785792698,670.3747278706749
1533059826.252,561.5116587175411,718.4945128548611,818.7245294758127,706.8564750876448,567.2388716475983
1533059826.256,498.11473237943824,718.4945128548611,967.5874941670555,740.747193597507,474.9585437028116
1533059826.26,701.8826179120297,803.018187438817,1063.2944470368643,774.6379121073693,795.216082264116
1533059826.264,873.961314255432,824.159925807615,914.4314823456214,798.8512341088566,852.2117745147992
1533059826.268,756.2281399046105,876.981812561183,871.9023176232696,789.1639222352067,586.2374357311594
1533059826.272,575.0980392156863,929.8036993147509,1052.6458236117592,745.5958072169694,852.2117745147992
1533059826.276,425.6571277159512,887.541862022773,1116.4504588582984,677.8143701972449,757.2245124832091
1533059826.28,688.3055113937467,919.243649853161,1137.725929382486,721.3824852154821,572.6638565936356
1533059826.284,937.3582405935347,919.243649853161,1201.5087883030021,808.5286306172314,925.4935383760248
1533059826.2879999,806.038685744568,760.756350146839,1212.157411728107,808.5286306172314,781.6480615128074
1533059826.292,624.9085850556439,718.4945128548611,1095.174988334111,769.7992138531818,841.3562462365094
1533059826.295,466.4162692103869,729.0545623164511,967.5874941670555,716.5437869612947,1006.9127796563065
1533059826.299,620.3736089030207,707.9128239476531,871.9023176232696,740.747193597507,667.656677011441
1533059826.303,878.4870164281929,729.0545623164511,797.4708352776481,745.5958072169694,833.2132104312382
1533059826.3070002,806.038685744568,866.421763099593,967.5874941670555,745.5958072169694,941.7796099865673
1533059826.311,674.7191308956014,898.123550929981,1073.9212941359465,774.6379121073693,1055.7654361017185
1533059826.315,543.3995760466348,866.421763099593,1020.7652823145123,784.3252239810191,1186.0428922136273
1533059826.319,652.072072072072,898.123550929981,1127.0773059573805,837.5806508729063,1034.0543795451388
1533059826.323,955.4703232644409,834.719975269205,1020.7652823145123,900.5233896384433,1207.753948770207
1533059826.3270001,869.4356120826709,781.876449070019,946.333799968891,861.7840575091186,1272.8926768261615
1533059826.331,606.7872284048755,803.018187438817,1031.3921294135946,774.6379121073693,1278.323220158414
1533059826.335,430.18282988871226,824.159925807615,946.333799968891,726.2211834696697,1183.3303997406088
1533059826.3379998,534.3388977212506,781.876449070019,1148.3527764815678,764.9605155989943,1120.904164157673
1533059826.342,851.3235294117648,760.756350146839,1318.4694353709754,847.2679627465562,1264.7496410208903
1533059826.346,815.0900900900901,676.2326755628832,1286.5888940737284,823.0546407450689,1191.4734355458797
1533059826.35,606.7872284048755,633.9708382709053,1382.2740706175143,760.1119019795318,947.2045949326046
1533059826.3539999,421.13142554319023,633.9708382709053,1371.6472235184322,702.0177768334572,724.6523692621242
1533059826.3579998,430.18282988871226,612.8290999021073,1350.371752994245,624.5589433053578,982.489230626708
1533059826.3620002,756.2281399046105,623.3891493636972,1382.2740706175143,687.4917667056199,1034.0543795451388
1533059826.3660002,815.0900900900901,655.0909371940852,1350.371752994245,769.7992138531818,697.510769373292
1533059826.37,597.7358240593535,866.421763099593,1361.0203764193498,721.3824852154821,917.3505025707536
1533059826.3739998,389.43296237413887,866.421763099593,1318.4694353709754,692.3304649598074,705.6538051785632
1533059826.377,416.60572337042925,845.280024730795,1361.0203764193498,731.0697970891321,681.2302561489647
1533059826.381,756.2281399046105,919.243649853161,1339.7449058951624,774.6379121073693,1335.313354022882
1533059826.385,819.6250662427133,940.3853882219589,1201.5087883030021,808.5286306172314,1169.7568206030849
1533059826.389,670.1841547429783,950.9454376835489,1180.2550941048373,813.377244236694,890.2089026819214
1533059826.393,543.3995760466348,919.243649853161,1201.5087883030021,774.6379121073693,1088.3375793228033
1533059826.397,484.5283518812931,845.280024730795,1318.4694353709754,731.0697970891321,1061.195979433971
1533059826.401,765.2795442501325,845.280024730795,1286.5888940737284,755.2732037253444,659.5136412061698
1533059826.405,810.5643879173291,781.876449070019,1084.5481412350289,706.8564750876448,662.2316920654036
1533059826.409,570.563063063063,718.4945128548611,999.4898117903251,600.3456213038705,939.0615591273333
1533059826.4129999,416.60572337042925,792.458137977227,1010.1166588894074,614.8716314317079,681.2302561489647
1533059826.417,371.32087970323266,845.280024730795,1063.2944470368643,653.6010481957576,941.7796099865673
1533059826.42,683.7705352411235,855.840074192385,1105.823611759216,711.7050887071072,941.7796099865673
1533059826.424,873.961314255432,792.458137977227,1116.4504588582984,764.9605155989943,825.0757330121821
1533059826.428,688.3055113937467,760.756350146839,967.5874941670555,731.0697970891321,987.9142155727454
1533059826.4320002,457.35559088500264,686.7927250244732,903.7828589205164,668.1270583235951,1034.0543795451388
1533059826.436,366.7951775304717,623.3891493636972,967.5874941670555,687.4917667056199,822.3576821529483
1533059826.44,629.4342872284049,686.7927250244732,1158.9796235806502,735.9084953433195,854.929825374033
1533059826.444,783.3916269210387,676.2326755628832,1042.018976512677,726.2211834696697,1150.758256519524
1533059826.448,624.9085850556439,549.4255242413313,956.9606470679732,677.8143701972449,635.0900921765714
1533059826.4520001,466.4162692103869,538.8654747797414,1042.018976512677,648.7623499415702,580.8068923989068
1533059826.456,384.9072602013778,697.352774486063,978.2143412661378,706.8564750876448,890.2089026819214
1533059826.46,579.6237413884472,834.719975269205,1073.9212941359465,716.5437869612947,844.0742970957432
1533059826.4629998,792.4523052464228,876.981812561183,1158.9796235806502,721.3824852154821,1126.3347074899254
1533059826.467,679.2448330683625,855.840074192385,1180.2550941048373,697.1790785792698,751.7939691509565
1533059826.471,538.8645998940117,908.683600391571,1137.725929382486,629.3976415595453,844.0742970957432
1533059826.475,416.60572337042925,940.3853882219589,1042.018976512677,585.8196111760332,1020.4863587938302
1533059826.4789999,561.5116587175411,929.8036993147509,1020.7652823145123,590.6682247954956,895.6394460141739
1533059826.4829998,769.8145204027556,898.123550929981,1052.6458236117592,672.9657565777825,1112.7611283524018
1533059826.4870002,638.4856915739268,887.541862022773,1010.1166588894074,682.6530684514324,933.636574181296
1533059826.4910002,452.82988871224165,919.243649853161,914.4314823456214,600.3456213038705,1047.6279586826624
1533059826.495,294.33757286698466,950.9454376835489,914.4314823456214,566.4549027940083,865.7853536523229
1533059826.4989998,457.35559088500264,993.2072749755268,1010.1166588894074,653.6010481957576,792.5035897910973
1533059826.502,787.9266030736619,972.0655366067289,956.9606470679732,716.5437869612947,1004.2002871832877
1533059826.506,719.9947005829358,866.421763099593,1052.6458236117592,769.7992138531818,1047.6279586826624
1533059826.51,538.8645998940117,855.840074192385,1169.6064706797324,755.2732037253444,1278.323220158414
1533059826.514,353.20879703232646,876.981812561183,988.8629646912428,711.7050887071072,1167.0443281300663
1533059826.518,421.13142554319023,940.3853882219589,935.6851765437859,697.1790785792698,966.2031590161656
1533059826.522,760.7538420773715,993.2072749755268,850.6268470990823,682.6530684514324,743.6509333456853
1533059826.526,710.9432962374138,993.2072749755268,935.6851765437859,711.7050887071072,724.6523692621242
1533059826.53,511.70111287758345,982.6472255139369,1180.2550941048373,711.7050887071072,1044.9099078234285
1533059826.534,348.6738208797032,950.9454376835489,1063.2944470368643,687.4917667056199,974.3461948214368
1533059826.5379999,403.019342872284,972.0655366067289,1031.3921294135946,682.6530684514324,960.7781740701283
1533059826.542,760.7538420773715,929.8036993147509,1116.4504588582984,702.0177768334572,925.4935383760248
1533059826.545,806.038685744568,929.8036993147509,1180.2550941048373,721.3824852154821,540.097271758766
1533059826.549,638.4856915739268,972.0655366067289,1212.157411728107,658.4496618152201,827.7882254852008
1533059826.553,425.6571277159512,993.2072749755268,1073.9212941359465,590.6682247954956,879.3533744036315
1533059826.5570002,362.26020137784843,940.3853882219589,1095.174988334111,571.2936010481958,540.097271758766
1533059826.561,688.3055113937467,929.8036993147509,1201.5087883030021,643.9236516873827,624.2345638982815
1533059826.565,819.6250662427133,919.243649853161,1158.9796235806502,706.8564750876448,716.509333456853
1533059826.569,656.6070482246953,876.981812561183,1275.9402706486235,639.0750380679202,838.6437537634906
1533059826.573,502.6404345521993,972.0655366067289,1339.7449058951624,614.8716314317079,1126.3347074899254
1533059826.5770001,498.11473237943824,1088.3126384666907,1201.5087883030021,672.9657565777825,800.6466255963685
1533059826.581,801.5129835718071,1130.5744757586688,1244.0379530253538,740.747193597507,730.0829125943768
1533059826.5839999,937.3582405935347,1014.349013344325,1169.6064706797324,779.4865257268317,906.4949742924638
1533059826.5879998,792.4523052464228,929.8036993147509,1127.0773059573805,789.1639222352067,985.2017230997267
1533059826.592,566.037360890302,908.683600391571,1052.6458236117592,745.5958072169694,971.6337023484182
1533059826.596,439.24350821409644,760.756350146839,893.1560118214342,711.7050887071072,993.3447589049979
1533059826.6,719.9947005829358,813.578236900407,978.2143412661378,774.6379121073693,1188.755384686646
1533059826.6039999,824.1507684154743,876.981812561183,978.2143412661378,842.4193491270937,1061.195979433971
1533059826.6079998,656.6070482246953,813.578236900407,988.8629646912428,866.632671128581,974.3461948214368
1533059826.6120002,507.16613672496027,750.1963006852491,946.333799968891,837.5806508729063,1001.4877947102691
1533059826.6160002,407.5450450450451,771.316399608429,871.9023176232696,818.2159424908814,792.5035897910973
1533059826.62,643.0206677265501,813.578236900407,946.333799968891,832.7419526187188,846.7867895687618
1533059826.6239998,860.3749337572867,739.6146117780411,1010.1166588894074,847.2679627465562,833.2132104312382
1533059826.627,760.7538420773715,686.7927250244732,1031.3921294135946,832.7419526187188,689.3677335680208
1533059826.631,588.6751457339693,729.0545623164511,1073.9212941359465,813.377244236694,822.3576821529483
1533059826.635,461.8812930577636,760.756350146839,1020.7652823145123,803.689932363044,1161.6137847978137
1533059826.639,688.3055113937467,876.981812561183,1031.3921294135946,813.377244236694,928.2060308490435
1533059826.643,950.9446210916799,908.683600391571,1084.5481412350289,842.4193491270937,762.6494974292464
1533059826.647,873.961314255432,950.9454376835489,1212.157411728107,890.8360777647933,906.4949742924638
1533059826.651,692.8312135665077,972.0655366067289,1350.371752994245,890.8360777647933,947.2045949326046
1533059826.655,461.8812930577636,887.541862022773,1148.3527764815678,784.3252239810191,1023.1988512668488
1533059826.659,588.6751457339693,919.243649853161,1010.1166588894074,764.9605155989943,860.3548103200704
1533059826.6629999,887.5476947535772,940.3853882219589,1073.9212941359465,842.4193491270937,822.3576821529483
1533059826.667,801.5129835718071,1014.349013344325,1052.6458236117592,818.2159424908814,757.2245124832091
1533059826.67,624.9085850556439,1035.4691122675047,988.8629646912428,774.6379121073693,784.3605539858261
1533059826.674,425.6571277159512,1003.7673244371168,925.0583294447036,769.7992138531818,773.5050257075362
1533059826.678,507.16613672496027,993.2072749755268,1073.9212941359465,755.2732037253444,797.9341331233499
1533059826.6820002,842.2628510863805,1014.349013344325,1318.4694353709754,818.2159424908814,1017.7738663208115
1533059826.686,815.0900900900901,1035.4691122675047,1350.371752994245,837.5806508729063,1403.1645745518551
1533059826.69,624.9085850556439,1077.7309495594827,1350.371752994245,827.8933389992563,1215.8969845754782
1533059826.694,430.18282988871226,1088.3126384666907,1254.686576450459,827.8933389992563,1153.4763073787576
1533059826.698,516.2268150503445,1098.8726879282806,1031.3921294135946,798.8512341088566,1077.4820510445134
1533059826.7020001,833.2114467408585,1046.0291617290948,925.0583294447036,861.7840575091186,911.9255176247162
1533059826.706,760.7538420773715,961.5054871451389,935.6851765437859,823.0546407450689,1199.6109129649358
1533059826.7089999,575.0980392156863,929.8036993147509,988.8629646912428,745.5958072169694,1110.048635879383
1533059826.7129998,421.13142554319023,876.981812561183,978.2143412661378,794.0026204893941,949.9226457918385
1533059826.717,466.4162692103869,876.981812561183,914.4314823456214,813.377244236694,1063.9084719069897
1533059826.721,792.4523052464228,803.018187438817,861.2536941981646,837.5806508729063,773.5050257075362
1533059826.725,842.2628510863805,760.756350146839,946.333799968891,876.310067636956,629.6595488443189
1533059826.7289999,710.9432962374138,834.719975269205,999.4898117903251,885.9973795106059,949.9226457918385
1533059826.7329998,534.3388977212506,855.840074192385,893.1560118214342,847.2679627465562,949.9226457918385
1533059826.7370002,516.2268150503445,919.243649853161,850.6268470990823,803.689932363044,868.4978461253417
1533059826.7410002,842.2628510863805,898.123550929981,914.4314823456214,847.2679627465562,816.9326972069109
1533059826.745,887.5476947535772,739.6146117780411,1020.7652823145123,808.5286306172314,857.6423178470517
1533059826.7489998,670.1841547429783,697.352774486063,1052.6458236117592,706.8564750876448,974.3461948214368
1533059826.752,498.11473237943824,718.4945128548611,967.5874941670555,697.1790785792698,974.3461948214368
1533059826.756,434.71780604133545,676.2326755628832,967.5874941670555,668.1270583235951,1042.19741535041
1533059826.76,733.581081081081,792.458137977227,1116.4504588582984,639.0750380679202,1148.0457640465052
1533059826.764,878.4870164281929,824.159925807615,1127.0773059573805,702.0177768334572,1099.193107601093
1533059826.768,688.3055113937467,760.756350146839,1084.5481412350289,745.5958072169694,762.6494974292464
1533059826.772,480.0026497085321,898.123550929981,1127.0773059573805,668.1270583235951,949.9226457918385
1533059826.776,403.019342872284,940.3853882219589,1137.725929382486,624.5589433053578,892.9269535411552
1533059826.78,710.9432962374138,898.123550929981,1329.1180587960803,706.8564750876448,765.361989902265
1533059826.784,901.1340752517223,876.981812561183,1456.7055529631357,803.689932363044,738.225948399648
1533059826.7879999,724.5296767355591,887.541862022773,1477.981023487323,779.4865257268317,914.638010097735
1533059826.792,543.3995760466348,1024.9090628059148,1339.7449058951624,731.0697970891321,1313.6022974663024
1533059826.795,466.4162692103869,1193.9564119738266,1201.5087883030021,745.5958072169694,1066.6265227662236
1533059826.799,733.581081081081,1394.7271884177442,1265.313423549541,779.4865257268317,637.80258464959
1533059826.803,901.1340752517223,1447.5490751713123,1244.0379530253538,750.434505471157,974.3461948214368
1533059826.8070002,683.7705352411235,1426.4289762481324,1169.6064706797324,629.3976415595453,1137.1902357682152
1533059826.811,525.2782193958665,1415.8472873409244,1169.6064706797324,600.3456213038705,1074.7640001852794
1533059826.815,416.60572337042925,1363.0254005873564,1244.0379530253538,629.3976415595453,1348.8869331604058
1533059826.819,652.072072072072,1384.1454995105364,1254.686576450459,706.8564750876448,1120.904164157673
1533059826.823,878.4870164281929,1352.4653511257666,1148.3527764815678,711.7050887071072,854.929825374033
1533059826.8270001,683.7705352411235,1299.6218249265805,1073.9212941359465,605.184319558058,1063.9084719069897
1533059826.831,543.3995760466348,1310.2035138337885,1137.725929382486,610.0329331775205,1172.4748714623188
1533059826.8339999,389.43296237413887,1289.0617754649907,1063.2944470368643,600.3456213038705,1156.1887998517764
1533059826.8379998,516.2268150503445,1236.2398887114225,967.5874941670555,561.6162045398208,968.9156514891843
1533059826.842,873.961314255432,1236.2398887114225,967.5874941670555,663.2883600694075,925.4935383760248
1533059826.846,806.038685744568,1310.2035138337885,903.7828589205164,692.3304649598074,1137.1902357682152
1533059826.85,566.037360890302,1394.7271884177442,967.5874941670555,605.184319558058,792.5035897910973
1533059826.8539999,348.6738208797032,1426.4289762481324,999.4898117903251,547.0901944119835,694.7982769002733
1533059826.8579998,461.8812930577636,1373.5854500489463,1095.174988334111,585.8196111760332,1001.4877947102691
1533059826.8620002,710.9432962374138,1236.2398887114225,1180.2550941048373,624.5589433053578,624.2345638982815
1533059826.8660002,615.8479067302596,1267.9200370961923,1275.9402706486235,624.5589433053578,575.3819074528695
1533059826.87,502.6404345521993,1341.8836622185584,1424.8032353398662,619.7103296858954,1167.0443281300663
1533059826.8739998,330.561738208797,1193.9564119738266,1361.0203764193498,668.1270583235951,1020.4863587938302
1533059826.877,375.84658187599365,1151.6945746818487,1329.1180587960803,692.3304649598074,784.3605539858261
1533059826.881,701.8826179120297,1257.3599876346025,1265.313423549541,706.8564750876448,567.2388716475983
1533059826.885,729.0553789083201,1415.8472873409244,1190.8819412039197,726.2211834696697,854.929825374033
1533059826.889,538.8645998940117,1394.7271884177442,1212.157411728107,663.2883600694075,1085.6250868497846
1533059826.893,344.1481187069422,1415.8472873409244,1180.2550941048373,643.9236516873827,770.7925332345176
1533059826.897,403.019342872284,1479.2508630017003,1297.2157411728108,697.1790785792698,873.9283894575941
1533059826.901,706.4175940646529,1331.3236127569683,1403.5495411417016,750.434505471157,697.510769373292
1533059826.905,756.2281399046105,1310.2035138337885,1254.686576450459,818.2159424908814,787.07860484506
1533059826.909,633.9599894011659,1299.6218249265805,1084.5481412350289,803.689932363044,1139.902728241234
1533059826.9129999,407.5450450450451,1193.9564119738266,946.333799968891,697.1790785792698,787.07860484506
1533059826.917,303.39825119236883,1183.3963625122367,871.9023176232696,595.5069230496831,556.3833433693085
1533059826.92,615.8479067302596,1183.3963625122367,914.4314823456214,648.7623499415702,895.6394460141739
1533059826.924,833.2114467408585,1246.7999381730126,850.6268470990823,794.0026204893941,1077.4820510445134
1533059826.928,656.6070482246953,1363.0254005873564,733.666200031109,682.6530684514324,1221.3275279077309
1533059826.9320002,375.84658187599365,1299.6218249265805,754.9416705552964,556.7775062856333,1376.0285330492381
1533059826.936,335.09671436142025,1098.8726879282806,818.7245294758127,590.6682247954956,944.4921024595859
1533059826.94,665.6584525702173,1014.349013344325,893.1560118214342,697.1790785792698,749.0814766779379
1533059826.944,774.3402225755167,1003.7673244371168,744.2930471301913,774.6379121073693,1110.048635879383
1533059826.948,556.9766825649178,961.5054871451389,691.1370353087573,687.4917667056199,1218.609477048497
1533059826.9520001,398.49364069952304,993.2072749755268,744.2930471301913,614.8716314317079,990.6322664319792
1533059826.956,384.9072602013778,982.6472255139369,648.6078705864054,624.5589433053578,670.3747278706749
1533059826.9589999,615.8479067302596,961.5054871451389,829.351376574895,624.5589433053578,409.8253740330724
1533059826.9629998,688.3055113937467,898.123550929981,871.9023176232696,571.2936010481958,409.8253740330724
1533059826.967,529.8131955484897,929.8036993147509,861.2536941981646,595.5069230496831,887.4964102089027
1533059826.971,407.5450450450451,1003.7673244371168,1052.6458236117592,677.8143701972449,996.0572513780165
1533059826.975,371.32087970323266,1035.4691122675047,978.2143412661378,716.5437869612947,1093.7625642688406
1533059826.9789999,670.1841547429783,1130.5744757586688,871.9023176232696,750.434505471157,1082.9070359905506
1533059826.9829998,855.8492315845257,1098.8726879282806,914.4314823456214,794.0026204893941,1066.6265227662236
1533059826.9870002,692.8312135665077,1056.6108506363025,871.9023176232696,745.5958072169694,1169.7568206030849
1533059826.9910002,552.4509803921569,1067.1709000978926,829.351376574895,711.7050887071072,1044.9099078234285
1533059826.995,353.20879703232646,993.2072749755268,808.0976823767304,706.8564750876448,898.3519384871926
1533059826.9989998,579.6237413884472,866.421763099593,882.5291647223519,779.4865257268317,702.9413127055445
1533059827.002,941.8839427662957,908.683600391571,935.6851765437859,944.0915046566805,936.3490666543147
1533059827.006,846.7885532591415,1056.6108506363025,861.2536941981646,997.3469315485676,1150.758256519524
1533059827.01,611.3222045574987,1035.4691122675047,776.1953647534609,881.1487658911434,721.9398767891056
1533059827.014,375.84658187599365,1035.4691122675047,776.1953647534609,784.3252239810191,895.6394460141739
1533059827.018,507.16613672496027,919.243649853161,914.4314823456214,798.8512341088566,939.0615591273333
1533059827.022,787.9266030736619,824.159925807615,967.5874941670555,827.8933389992563,480.38908703506416
1533059827.026,719.9947005829358,1024.9090628059148,882.5291647223519,740.747193597507,569.951364120617
1533059827.03,638.4856915739268,1204.5381008810346,925.0583294447036,692.3304649598074,673.0872203436935
1533059827.034,507.16613672496027,1257.3599876346025,999.4898117903251,745.5958072169694,683.9427486219835
1533059827.0379999,529.8131955484897,1204.5381008810346,1063.2944470368643,745.5958072169694,974.3461948214368
1533059827.0410001,864.9099099099099,1098.8726879282806,1137.725929382486,808.5286306172314,936.3490666543147
1533059827.045,869.4356120826709,1077.7309495594827,1095.174988334111,808.5286306172314,724.6523692621242
1533059827.049,629.4342872284049,1024.9090628059148,1105.823611759216,682.6530684514324,857.6423178470517
1533059827.053,335.09671436142025,1046.0291617290948,1105.823611759216,561.6162045398208,806.0771689286211
1533059827.0570002,353.20879703232646,1162.2762635890567,946.333799968891,513.1994759021212,890.2089026819214
1533059827.061,710.9432962374138,1088.3126384666907,882.5291647223519,590.6682247954956,1077.4820510445134
1533059827.065,724.5296767355591,993.2072749755268,871.9023176232696,619.7103296858954,944.4921024595859
1533059827.069,543.3995760466348,1024.9090628059148,1010.1166588894074,585.8196111760332,797.9341331233499
1533059827.073,348.6738208797032,1056.6108506363025,978.2143412661378,639.0750380679202,863.0673027930891
1533059827.0770001,398.49364069952304,1098.8726879282806,829.351376574895,658.4496618152201,806.0771689286211
1533059827.081,683.7705352411235,1056.6108506363025,786.8222118525432,658.4496618152201,873.9283894575941
1533059827.0839999,679.2448330683625,1014.349013344325,712.3907295069217,682.6530684514324,1145.3332715734864
1533059827.0879998,547.9252782193959,1141.1345252202586,648.6078705864054,682.6530684514324,1169.7568206030849
1533059827.092,393.95866454689985,1109.4327373898707,574.1763882407839,668.1270583235951,1082.9070359905506
1533059827.096,416.60572337042925,950.9454376835489,606.0787058640535,687.4917667056199,1145.3332715734864
1533059827.1,738.1160572337043,834.719975269205,786.8222118525432,760.1119019795318,979.7767381536894
1533059827.1039999,783.3916269210387,739.6146117780411,808.0976823767304,760.1119019795318,659.5136412061698
1533059827.1079998,579.6237413884472,834.719975269205,680.5101882096749,624.5589433053578,914.638010097735
1533059827.1120002,421.13142554319023,950.9454376835489,595.4300824389485,566.4549027940083,1036.7668720181573
1533059827.1160002,384.9072602013778,993.2072749755268,520.9986000933271,585.8196111760332,925.4935383760248
1533059827.12,661.1327503974563,1056.6108506363025,563.527764815679,624.5589433053578,830.5007179582194
1533059827.1239998,833.2114467408585,1162.2762635890567,563.527764815679,731.0697970891321,567.2388716475983
1533059827.127,620.3736089030207,1088.3126384666907,606.0787058640535,639.0750380679202,472.24605122979295
1533059827.131,380.37228404875464,887.541862022773,723.0393529320268,585.8196111760332,808.7896614016397
1533059827.135,344.1481187069422,908.683600391571,723.0393529320268,706.8564750876448,982.489230626708
1533059827.139,611.3222045574987,1119.9927868514606,691.1370353087573,672.9657565777825,1017.7738663208115
1533059827.143,801.5129835718071,1162.2762635890567,361.508788303002,634.2363398137328,882.0658668766501
1533059827.147,652.072072072072,1109.4327373898707,297.7041530564629,605.184319558058,803.3591180693871
1533059827.151,439.24350821409644,1141.1345252202586,489.09628247005753,527.7254860299586,1286.46069757747
1533059827.155,403.019342872284,1183.3963625122367,404.0379530253539,547.0901944119835,982.489230626708
1533059827.159,566.037360890302,1172.8363130506466,552.9009177165967,566.4549027940083,773.5050257075362
1533059827.1629999,742.6417594064653,1077.7309495594827,829.351376574895,629.3976415595453,901.0644309602112
1533059827.1660001,701.8826179120297,1162.2762635890567,956.9606470679732,653.6010481957576,1101.9056000741118
1533059827.17,489.05405405405406,1289.0617754649907,882.5291647223519,532.564184284146,1139.902728241234
1533059827.174,289.8118706942236,1246.7999381730126,829.351376574895,459.9440490102341,1126.3347074899254
1533059827.178,480.0026497085321,1172.8363130506466,935.6851765437859,503.52207939374625,1386.884061327528
1533059827.1820002,783.3916269210387,1088.3126384666907,999.4898117903251,595.5069230496831,1275.60516929918
1533059827.186,611.3222045574987,1003.7673244371168,946.333799968891,532.564184284146,939.0615591273333
1533059827.19,421.13142554319023,1046.0291617290948,786.8222118525432,445.4180388823967,797.9341331233499
1533059827.194,403.019342872284,1183.3963625122367,765.5685176543786,576.1422146676582,990.6322664319792
1533059827.198,597.7358240593535,1257.3599876346025,829.351376574895,672.9657565777825,1012.343322988559
1533059827.2020001,851.3235294117648,1193.9564119738266,786.8222118525432,663.2883600694075,683.9427486219835
1533059827.206,742.6417594064653,1046.0291617290948,882.5291647223519,653.6010481957576,806.0771689286211
1533059827.2089999,588.6751457339693,919.243649853161,1116.4504588582984,692.3304649598074,914.638010097735
1533059827.2129998,434.71780604133545,1014.349013344325,978.2143412661378,653.6010481957576,825.0757330121821
1533059827.217,425.6571277159512,1098.8726879282806,850.6268470990823,590.6682247954956,917.3505025707536
1533059827.221,692.8312135665077,1141.1345252202586,882.5291647223519,658.4496618152201,735.5078975404141
1533059827.225,688.3055113937467,1267.9200370961923,893.1560118214342,731.0697970891321,713.7968409838344
1533059827.2289999,457.35559088500264,1215.0981503426246,1010.1166588894074,677.8143701972449,971.6337023484182
1533059827.2329998,249.05272919978802,1109.4327373898707,999.4898117903251,585.8196111760332,759.9370049562277
1533059827.2370002,307.9239533651298,1183.3963625122367,978.2143412661378,527.7254860299586,548.2403075640373
1533059827.2410002,661.1327503974563,1384.1454995105364,988.8629646912428,576.1422146676582,618.804020566029
1533059827.245,692.8312135665077,1426.4289762481324,1063.2944470368643,653.6010481957576,586.2374357311594
1533059827.2489998,439.24350821409644,1289.0617754649907,1105.823611759216,590.6682247954956,917.3505025707536
1533059827.252,285.2861685214626,1246.7999381730126,1105.823611759216,542.2514961577959,1243.0385844643106
1533059827.256,357.73449920508745,1299.6218249265805,1105.823611759216,585.8196111760332,1161.6137847978137
1533059827.26,643.0206677265501,1278.5017260034006,1169.6064706797324,648.7623499415702,949.9226457918385
1533059827.264,706.4175940646529,1193.9564119738266,1212.157411728107,682.6530684514324,1389.5965538005466
1533059827.268,579.6237413884472,1331.3236127569683,1222.7842588271892,643.9236516873827,1680.0
1533059827.272,407.5450450450451,1363.0254005873564,1254.686576450459,658.4496618152201,1025.9113437398676
1533059827.276,348.6738208797032,1331.3236127569683,1137.725929382486,658.4496618152201,773.5050257075362
1533059827.28,656.6070482246953,1352.4653511257666,1031.3921294135946,721.3824852154821,711.0843485108157
1533059827.284,769.8145204027556,1225.6581998042147,956.9606470679732,813.377244236694,819.6451896799296
1533059827.2879999,538.8645998940117,1172.8363130506466,1084.5481412350289,706.8564750876448,930.9240817082774
1533059827.2910001,303.39825119236883,1151.6945746818487,1212.157411728107,605.184319558058,996.0572513780165
1533059827.295,303.39825119236883,1088.3126384666907,1148.3527764815678,643.9236516873827,1134.4777432951967
1533059827.299,643.0206677265501,993.2072749755268,1158.9796235806502,769.7992138531818,1194.1859280188985
1533059827.303,765.2795442501325,929.8036993147509,1063.2944470368643,837.5806508729063,1191.4734355458797
1533059827.3070002,543.3995760466348,972.0655366067289,935.6851765437859,774.6379121073693,681.2302561489647
1533059827.311,416.60572337042925,1088.3126384666907,871.9023176232696,697.1790785792698,559.0958358423271
1533059827.315,348.6738208797032,1130.5744757586688,808.0976823767304,619.7103296858954,724.6523692621242
1533059827.319,566.037360890302,1056.6108506363025,935.6851765437859,648.7623499415702,852.2117745147992
1533059827.323,715.4689984101749,972.0655366067289,988.8629646912428,677.8143701972449,1099.193107601093
1533059827.3270001,561.5116587175411,972.0655366067289,946.333799968891,663.2883600694075,917.3505025707536
1533059827.331,407.5450450450451,1003.7673244371168,967.5874941670555,648.7623499415702,974.3461948214368
1533059827.3339999,230.9406465288818,1003.7673244371168,967.5874941670555,513.1994759021212,1044.9099078234285
1533059827.3379998,416.60572337042925,1119.9927868514606,988.8629646912428,430.8920287545593,512.9556718699338
1533059827.342,638.4856915739268,1119.9927868514606,861.2536941981646,421.21463224618435,659.5136412061698
1533059827.346,534.3388977212506,1056.6108506363025,786.8222118525432,430.8920287545593,987.9142155727454
1533059827.35,362.26020137784843,1067.1709000978926,967.5874941670555,440.5793406282092,692.0857844272546
1533059827.3539999,240.00132485426604,1003.7673244371168,978.2143412661378,430.8920287545593,664.9441845384223
1533059827.3579998,502.6404345521993,1077.7309495594827,967.5874941670555,455.1053507560466,903.7824818194451
1533059827.3620002,801.5129835718071,1172.8363130506466,967.5874941670555,561.6162045398208,1039.4849228773912
1533059827.3660002,679.2448330683625,1183.3963625122367,935.6851765437859,619.7103296858954,697.510769373292
1533059827.37,511.70111287758345,1141.1345252202586,956.9606470679732,653.6010481957576,434.2489230626708
1533059827.3739998,393.95866454689985,1056.6108506363025,935.6851765437859,682.6530684514324,844.0742970957432
1533059827.377,556.9766825649178,1109.4327373898707,967.5874941670555,692.3304649598074,892.9269535411552
1533059827.381,828.6764705882352,1077.7309495594827,1031.3921294135946,726.2211834696697,518.3862152021863
1533059827.385,692.8312135665077,972.0655366067289,1052.6458236117592,663.2883600694075,721.9398767891056
1533059827.389,507.16613672496027,1046.0291617290948,1095.174988334111,566.4549027940083,844.0742970957432
1533059827.393,353.20879703232646,972.0655366067289,1095.174988334111,590.6682247954956,569.951364120617
1533059827.397,470.94197138314786,887.541862022773,1158.9796235806502,687.4917667056199,841.3562462365094
1533059827.401,851.3235294117648,950.9454376835489,1158.9796235806502,750.434505471157,1381.4535179952754
1533059827.405,855.8492315845257,1003.7673244371168,1063.2944470368643,735.9084953433195,1319.0328407985548
1533059827.409,661.1327503974563,1088.3126384666907,1073.9212941359465,721.3824852154821,1148.0457640465052
1533059827.4129999,489.05405405405406,1215.0981503426246,1010.1166588894074,731.0697970891321,1112.7611283524018
1533059827.4160001,516.2268150503445,1119.9927868514606,1031.3921294135946,716.5437869612947,1335.313354022882
1533059827.42,756.2281399046105,929.8036993147509,1084.5481412350289,740.747193597507,1335.313354022882
1533059827.424,765.2795442501325,919.243649853161,1084.5481412350289,774.6379121073693,838.6437537634906
1533059827.428,579.6237413884472,940.3853882219589,1148.3527764815678,745.5958072169694,903.7824818194451
1533059827.4320002,348.6738208797032,876.981812561183,1105.823611759216,711.7050887071072,1158.9012923247951
1533059827.436,375.84658187599365,697.352774486063,988.8629646912428,702.0177768334572,1069.3390152392421
1533059827.44,706.4175940646529,665.6509866556751,967.5874941670555,764.9605155989943,1229.4650053267867
1533059827.444,778.8659247482777,707.9128239476531,978.2143412661378,852.1066610007437,1224.0400203807494
1533059827.448,593.2101218865924,707.9128239476531,1031.3921294135946,827.8933389992563,933.636574181296
1533059827.4520001,398.49364069952304,665.6509866556751,988.8629646912428,755.2732037253444,852.2117745147992
1533059827.456,366.7951775304717,633.9708382709053,1010.1166588894074,760.1119019795318,852.2117745147992
1533059827.4589999,656.6070482246953,644.5308877324952,1042.018976512677,789.1639222352067,939.0615591273333
1533059827.4629998,801.5129835718071,633.9708382709053,1095.174988334111,837.5806508729063,884.783917735884
1533059827.467,643.0206677265501,655.0909371940852,1137.725929382486,794.0026204893941,838.6437537634906
1533059827.471,470.94197138314786,803.018187438817,999.4898117903251,658.4496618152201,852.2117745147992
1533059827.475,407.5450450450451,950.9454376835489,935.6851765437859,624.5589433053578,1063.9084719069897
1533059827.4789999,638.4856915739268,950.9454376835489,1052.6458236117592,672.9657565777825,1335.313354022882
1533059827.4829998,710.9432962374138,919.243649853161,988.8629646912428,672.9657565777825,1028.6293945991015
1533059827.4870002,511.70111287758345,982.6472255139369,999.4898117903251,658.4496618152201,749.0814766779379
1533059827.4910002,276.22549019607845,919.243649853161,1063.2944470368643,556.7775062856333,1047.6279586826624
1533059827.495,158.49231584525702,813.578236900407,1105.823611759216,576.1422146676582,1039.4849228773912
1533059827.498,452.82988871224165,824.159925807615,1361.0203764193498,731.0697970891321,477.67659456204547
1533059827.502,661.1327503974563,919.243649853161,1371.6472235184322,764.9605155989943,588.949928204178
1533059827.506,493.57975622681505,982.6472255139369,1148.3527764815678,682.6530684514324,825.0757330121821
1533059827.51,235.46634870164283,1024.9090628059148,1116.4504588582984,595.5069230496831,933.636574181296
1533059827.514,104.14679385267621,908.683600391571,1105.823611759216,614.8716314317079,1229.4650053267867
1533059827.518,348.6738208797032,813.578236900407,1063.2944470368643,711.7050887071072,1180.6123488813748
1533059827.522,633.9599894011659,950.9454376835489,1127.0773059573805,832.7419526187188,1050.3404511556812
1533059827.526,584.1494435612083,1109.4327373898707,1222.7842588271892,803.689932363044,1120.904164157673
1533059827.53,375.84658187599365,1109.4327373898707,1254.686576450459,711.7050887071072,740.9384408726667
1533059827.534,158.49231584525702,1098.8726879282806,1265.313423549541,677.8143701972449,787.07860484506
1533059827.5379999,362.26020137784843,1098.8726879282806,1307.842588271893,716.5437869612947,1112.7611283524018
1533059827.5410001,688.3055113937467,1014.349013344325,1254.686576450459,813.377244236694,1017.7738663208115
1533059827.545,602.2615262321144,876.981812561183,1201.5087883030021,808.5286306172314,884.783917735884
1533059827.549,457.35559088500264,803.018187438817,1180.2550941048373,755.2732037253444,651.3761637871138
1533059827.553,316.97535771065185,887.541862022773,1031.3921294135946,735.9084953433195,575.3819074528695
1533059827.5570002,375.84658187599365,898.123550929981,956.9606470679732,663.2883600694075,787.07860484506
1533059827.561,602.2615262321144,813.578236900407,1020.7652823145123,643.9236516873827,903.7824818194451
1533059827.565,470.94197138314786,771.316399608429,1127.0773059573805,619.7103296858954,966.2031590161656
1533059827.569,240.00132485426604,792.458137977227,1137.725929382486,576.1422146676582,854.929825374033
1533059827.573,90.56041335453101,803.018187438817,1052.6458236117592,576.1422146676582,789.7910973180786
1533059827.5770001,199.24218335983042,834.719975269205,1063.2944470368643,576.1422146676582,906.4949742924638
1533059827.581,498.11473237943824,929.8036993147509,1052.6458236117592,580.9809129218456,936.3490666543147
1533059827.5839999,484.5283518812931,887.541862022773,871.9023176232696,551.9288926661709,1091.0500717958219
1533059827.5879998,294.33757286698466,876.981812561183,808.0976823767304,513.1994759021212,1066.6265227662236
1533059827.592,76.98330683624798,876.981812561183,893.1560118214342,508.36077764793373,564.5263791745797
1533059827.596,122.2588765235824,824.159925807615,988.8629646912428,527.7254860299586,708.3662976515818
1533059827.6,439.24350821409644,729.0545623164511,946.333799968891,571.2936010481958,1099.193107601093
1533059827.6039999,457.35559088500264,644.5308877324952,893.1560118214342,585.8196111760332,1389.5965538005466
1533059827.6079998,335.09671436142025,612.8290999021073,967.5874941670555,605.184319558058,901.0644309602112
1533059827.6120002,199.24218335983042,602.2690504405174,988.8629646912428,619.7103296858954,662.2316920654036
1533059827.6160002,172.06942236354,570.5672626101294,1137.725929382486,619.7103296858954,844.0742970957432
1533059827.62,511.70111287758345,496.6036374877634,1212.157411728107,663.2883600694075,770.7925332345176
1533059827.623,679.2448330683625,612.8290999021073,1084.5481412350289,740.747193597507,846.7867895687618
1533059827.627,575.0980392156863,729.0545623164511,1127.0773059573805,769.7992138531818,958.0601232108944
1533059827.631,357.73449920508745,633.9708382709053,1169.6064706797324,726.2211834696697,974.3461948214368
1533059827.635,280.75119236883944,549.4255242413313,1073.9212941359465,697.1790785792698,1063.9084719069897
1533059827.639,633.9599894011659,528.3054253181514,1052.6458236117592,769.7992138531818,844.0742970957432
1533059827.643,769.8145204027556,528.3054253181514,1010.1166588894074,856.9453592549311,594.3804715364306
1533059827.647,575.0980392156863,517.7237364109434,946.333799968891,832.7419526187188,711.0843485108157
1533059827.651,421.13142554319023,570.5672626101294,914.4314823456214,798.8512341088566,825.0757330121821
1533059827.655,335.09671436142025,560.0072131485393,903.7828589205164,842.4193491270937,906.4949742924638
1533059827.659,511.70111287758345,496.6036374877634,946.333799968891,789.1639222352067,917.3505025707536
1533059827.6629999,633.9599894011659,475.46189911896545,967.5874941670555,745.5958072169694,949.9226457918385
1533059827.6660001,534.3388977212506,602.2690504405174,978.2143412661378,823.0546407450689,1025.9113437398676
1533059827.67,384.9072602013778,760.756350146839,1073.9212941359465,832.7419526187188,1080.194543517532
1533059827.674,276.22549019607845,781.876449070019,1052.6458236117592,798.8512341088566,1001.4877947102691
1533059827.678,484.5283518812931,813.578236900407,1063.2944470368643,784.3252239810191,1085.6250868497846
1533059827.6820002,710.9432962374138,750.1963006852491,1095.174988334111,827.8933389992563,1028.6293945991015
1533059827.686,611.3222045574987,676.2326755628832,1127.0773059573805,798.8512341088566,1134.4777432951967
1533059827.69,375.84658187599365,623.3891493636972,1212.157411728107,702.0177768334572,1218.609477048497
1533059827.694,203.7678855325914,549.4255242413313,1233.4111059262716,692.3304649598074,903.7824818194451
1533059827.698,452.82988871224165,581.1273120717193,1244.0379530253538,706.8564750876448,1061.195979433971
1533059827.7020001,719.9947005829358,718.4945128548611,1095.174988334111,687.4917667056199,1066.6265227662236
1533059827.706,593.2101218865924,866.421763099593,1031.3921294135946,648.7623499415702,928.2060308490435
1533059827.7089999,348.6738208797032,908.683600391571,1244.0379530253538,561.6162045398208,1093.7625642688406
1533059827.7129998,190.19077901430842,898.123550929981,1254.686576450459,537.4127979036085,958.0601232108944
1533059827.717,398.49364069952304,781.876449070019,1137.725929382486,614.8716314317079,941.7796099865673
1533059827.721,688.3055113937467,845.280024730795,1042.018976512677,668.1270583235951,1025.9113437398676
1533059827.725,643.0206677265501,908.683600391571,1031.3921294135946,706.8564750876448,1009.6308305155403
1533059827.7289999,448.30418653948067,760.756350146839,1148.3527764815678,648.7623499415702,1120.904164157673
1533059827.7329998,203.7678855325914,707.9128239476531,1158.9796235806502,576.1422146676582,1031.34188707212
1533059827.7370002,353.20879703232646,750.1963006852491,1084.5481412350289,614.8716314317079,849.4992820417806
1533059827.7410002,719.9947005829358,803.018187438817,988.8629646912428,731.0697970891321,673.0872203436935
1533059827.745,633.9599894011659,750.1963006852491,1042.018976512677,721.3824852154821,781.6480615128074
1533059827.748,475.46767355590885,803.018187438817,1116.4504588582984,677.8143701972449,952.6351382648571
1533059827.752,303.39825119236883,919.243649853161,1042.018976512677,692.3304649598074,632.3775997035527
1533059827.756,326.036036036036,929.8036993147509,1031.3921294135946,614.8716314317079,740.9384408726667
1533059827.76,652.072072072072,908.683600391571,1073.9212941359465,619.7103296858954,911.9255176247162
1533059827.764,647.5463698993111,824.159925807615,861.2536941981646,639.0750380679202,920.0629950437723
1533059827.768,416.60572337042925,729.0545623164511,691.1370353087573,571.2936010481958,531.9542359534948
1533059827.772,172.06942236354,739.6146117780411,829.351376574895,493.8347675200963,369.11019500671637
1533059827.776,217.35426603073662,729.0545623164511,882.5291647223519,488.99606926590883,700.2288202325258
1533059827.78,624.9085850556439,686.7927250244732,850.6268470990823,653.6010481957576,841.3562462365094
1533059827.784,656.6070482246953,803.018187438817,786.8222118525432,735.9084953433195,1017.7738663208115
1533059827.7879999,480.0026497085321,940.3853882219589,786.8222118525432,672.9657565777825,977.0586872944555
1533059827.7910001,344.1481187069422,908.683600391571,893.1560118214342,663.2883600694075,1023.1988512668488
1533059827.795,353.20879703232646,908.683600391571,925.0583294447036,706.8564750876448,960.7781740701283
1533059827.799,656.6070482246953,876.981812561183,925.0583294447036,740.747193597507,968.9156514891843
1533059827.803,738.1160572337043,834.719975269205,893.1560118214342,813.377244236694,903.7824818194451
1533059827.8070002,556.9766825649178,919.243649853161,1042.018976512677,808.5286306172314,814.2146463476771
1533059827.811,348.6738208797032,1056.6108506363025,1105.823611759216,721.3824852154821,1031.34188707212
1533059827.815,285.2861685214626,1035.4691122675047,786.8222118525432,692.3304649598074,746.363425818704
1533059827.819,602.2615262321144,1046.0291617290948,669.86156478457,750.434505471157,341.9685951178842
1533059827.823,710.9432962374138,1119.9927868514606,840.0,769.7992138531818,637.80258464959
1533059827.8270001,516.2268150503445,1088.3126384666907,935.6851765437859,735.9084953433195,963.490666543147
1533059827.83,357.73449920508745,1014.349013344325,903.7828589205164,721.3824852154821,1169.7568206030849
1533059827.8339999,289.8118706942236,876.981812561183,956.9606470679732,726.2211834696697,1099.193107601093
1533059827.8379998,602.2615262321144,876.981812561183,1020.7652823145123,769.7992138531818,944.4921024595859
1533059827.842,787.9266030736619,940.3853882219589,967.5874941670555,798.8512341088566,1031.34188707212
1533059827.846,620.3736089030207,855.840074192385,935.6851765437859,764.9605155989943,1150.758256519524
1533059827.85,466.4162692103869,887.541862022773,935.6851765437859,735.9084953433195,1118.1916716846542
1533059827.8539999,303.39825119236883,940.3853882219589,935.6851765437859,726.2211834696697,879.3533744036315
1533059827.8579998,507.16613672496027,950.9454376835489,978.2143412661378,716.5437869612947,922.7810459030062
1533059827.8620002,701.8826179120297,950.9454376835489,935.6851765437859,755.2732037253444,1099.193107601093
1533059827.8660002,615.8479067302596,876.981812561183,967.5874941670555,789.1639222352067,1172.4748714623188
1533059827.87,470.94197138314786,908.683600391571,1105.823611759216,735.9084953433195,1148.0457640465052
1533059827.873,253.58770535241123,929.8036993147509,1052.6458236117592,682.6530684514324,846.7867895687618
1533059827.877,466.4162692103869,919.243649853161,1020.7652823145123,735.9084953433195,808.7896614016397
1533059827.881,801.5129835718071,898.123550929981,1148.3527764815678,808.5286306172314,998.7753022372505
1533059827.885,679.2448330683625,898.123550929981,1105.823611759216,764.9605155989943,966.2031590161656
1533059827.889,457.35559088500264,876.981812561183,1063.2944470368643,643.9236516873827,1017.7738663208115
1533059827.893,271.6997880233174,771.316399608429,1010.1166588894074,639.0750380679202,1180.6123488813748
1533059827.897,470.94197138314786,803.018187438817,999.4898117903251,706.8564750876448,958.0601232108944
1533059827.901,810.5643879173291,845.280024730795,1010.1166588894074,764.9605155989943,787.07860484506
1533059827.905,724.5296767355591,686.7927250244732,914.4314823456214,774.6379121073693,1177.899856408356
1533059827.909,534.3388977212506,612.8290999021073,956.9606470679732,731.0697970891321,1142.6152207142527
1533059827.9129999,344.1481187069422,560.0072131485393,1010.1166588894074,706.8564750876448,1142.6152207142527
1533059827.9160001,430.18282988871226,475.46189911896545,1020.7652823145123,706.8564750876448,1129.0471999629442
1533059827.92,724.5296767355591,507.1636869493534,1095.174988334111,740.747193597507,1006.9127796563065
1533059827.924,665.6584525702173,496.6036374877634,1137.725929382486,764.9605155989943,1213.1844921024597
1533059827.928,470.94197138314786,486.04358802617344,1148.3527764815678,760.1119019795318,990.6322664319792
1533059827.9320002,235.46634870164283,507.1636869493534,1116.4504588582984,697.1790785792698,898.3519384871926
1533059827.936,280.75119236883944,591.6873615333093,1116.4504588582984,697.1790785792698,974.3461948214368
1533059827.94,624.9085850556439,676.2326755628832,1148.3527764815678,750.434505471157,979.7767381536894
1533059827.944,611.3222045574987,581.1273120717193,1169.6064706797324,716.5437869612947,1072.051507712261
1533059827.948,480.0026497085321,528.3054253181514,1148.3527764815678,726.2211834696697,719.2273843160868
1533059827.9520001,330.561738208797,549.4255242413313,1084.5481412350289,735.9084953433195,868.4978461253417
1533059827.955,280.75119236883944,570.5672626101294,1137.725929382486,668.1270583235951,903.7824818194451
1533059827.9589999,593.2101218865924,665.6509866556751,1307.842588271893,716.5437869612947,295.833989531706
1533059827.9629998,706.4175940646529,676.2326755628832,1180.2550941048373,794.0026204893941,499.38765111862523
1533059827.967,593.2101218865924,781.876449070019,1137.725929382486,808.5286306172314,1088.3375793228033
1533059827.971,457.35559088500264,1046.0291617290948,1265.313423549541,808.5286306172314,1161.6137847978137
1533059827.975,407.5450450450451,1141.1345252202586,1190.8819412039197,784.3252239810191,914.638010097735
1533059827.9789999,656.6070482246953,1130.5744757586688,1201.5087883030021,731.0697970891321,914.638010097735
1533059827.9829998,765.2795442501325,1109.4327373898707,1137.725929382486,769.7992138531818,1164.3318356570476
1533059827.9870002,692.8312135665077,1119.9927868514606,1031.3921294135946,861.7840575091186,852.2117745147992
1533059827.9910002,529.8131955484897,1183.3963625122367,1116.4504588582984,818.2159424908814,835.931261290472
1533059827.995,443.7692103868574,1289.0617754649907,1180.2550941048373,755.2732037253444,971.6337023484182
1533059827.998,706.4175940646529,1289.0617754649907,1318.4694353709754,755.2732037253444,1044.9099078234285
1533059828.002,747.1674615792263,1151.6945746818487,1339.7449058951624,779.4865257268317,1346.174440687387
1533059828.006,566.037360890302,1077.7309495594827,1286.5888940737284,731.0697970891321,1213.1844921024597
1533059828.01,380.37228404875464,1119.9927868514606,1350.371752994245,658.4496618152201,882.0658668766501
1533059828.014,258.11340752517225,1077.7309495594827,1222.7842588271892,600.3456213038705,825.0757330121821
1533059828.018,520.7525172231054,1067.1709000978926,1148.3527764815678,610.0329331775205,1023.1988512668488
1533059828.022,710.9432962374138,1172.8363130506466,1137.725929382486,687.4917667056199,903.7824818194451
1533059828.026,579.6237413884472,1246.7999381730126,1148.3527764815678,731.0697970891321,816.9326972069109
1533059828.03,443.7692103868574,1278.5017260034006,1244.0379530253538,760.1119019795318,1126.3347074899254
1533059828.034,321.51033386327504,1236.2398887114225,1286.5888940737284,789.1639222352067,952.6351382648571
1533059828.0379999,498.11473237943824,1172.8363130506466,1488.6078705864054,813.377244236694,708.3662976515818
1533059828.0410001,738.1160572337043,1130.5744757586688,1616.1953647534608,876.310067636956,884.783917735884
1533059828.045,683.7705352411235,1046.0291617290948,1424.8032353398662,885.9973795106059,930.9240817082774
1533059828.049,484.5283518812931,1056.6108506363025,1456.7055529631357,823.0546407450689,1262.0371485478715
1533059828.053,307.9239533651298,1151.6945746818487,1446.0787058640535,779.4865257268317,1053.0529436286997
1533059828.0570002,520.7525172231054,1183.3963625122367,1212.157411728107,764.9605155989943,681.2302561489647
1533059828.061,742.6417594064653,1183.3963625122367,1148.3527764815678,750.434505471157,1023.1988512668488
1533059828.065,615.8479067302596,1204.5381008810346,1275.9402706486235,740.747193597507,1186.0428922136273
1533059828.069,457.35559088500264,1172.8363130506466,1318.4694353709754,745.5958072169694,730.0829125943768
1533059828.073,321.51033386327504,1067.1709000978926,1254.686576450459,716.5437869612947,1023.1988512668488
1533059828.0770001,475.46767355590885,982.6472255139369,1361.0203764193498,731.0697970891321,1362.4549539117143
1533059828.08,715.4689984101749,929.8036993147509,1371.6472235184322,760.1119019795318,1253.8941127426003
1533059828.0839999,624.9085850556439,876.981812561183,1403.5495411417016,740.747193597507,1107.3361434063643
1533059828.0879998,520.7525172231054,866.421763099593,1509.86156478457,784.3252239810191,749.0814766779379
1533059828.092,348.6738208797032,961.5054871451389,1435.4518587649711,813.377244236694,827.7882254852008
1533059828.096,389.43296237413887,940.3853882219589,1222.7842588271892,731.0697970891321,1036.7668720181573
1533059828.1,656.6070482246953,898.123550929981,1244.0379530253538,682.6530684514324,882.0658668766501
1533059828.1039999,606.7872284048755,950.9454376835489,1361.0203764193498,687.4917667056199,697.510769373292
1533059828.1079998,421.13142554319023,972.0655366067289,1371.6472235184322,614.8716314317079,787.07860484506
1533059828.1120002,230.9406465288818,961.5054871451389,1265.313423549541,614.8716314317079,987.9142155727454
1533059828.1160002,326.036036036036,993.2072749755268,1275.9402706486235,697.1790785792698,914.638010097735
1533059828.12,615.8479067302596,1098.8726879282806,1424.8032353398662,687.4917667056199,960.7781740701283
1533059828.123,579.6237413884472,1098.8726879282806,1318.4694353709754,663.2883600694075,898.3519384871926
1533059828.127,466.4162692103869,1109.4327373898707,1318.4694353709754,692.3304649598074,835.931261290472
1533059828.131,289.8118706942236,1236.2398887114225,1350.371752994245,619.7103296858954,985.2017230997267
1533059828.135,312.4496555378908,1320.7635632953784,1169.6064706797324,585.8196111760332,1017.7738663208115
1533059828.139,670.1841547429783,1341.8836622185584,1254.686576450459,663.2883600694075,955.3476307378758
1533059828.143,751.6931637519873,1352.4653511257666,1222.7842588271892,726.2211834696697,624.2345638982815
1533059828.147,606.7872284048755,1384.1454995105364,1212.157411728107,726.2211834696697,846.7867895687618
1533059828.151,457.35559088500264,1352.4653511257666,1329.1180587960803,706.8564750876448,1023.1988512668488
1533059828.155,412.07074721780606,1236.2398887114225,1222.7842588271892,702.0177768334572,700.2288202325258
1533059828.159,652.072072072072,1172.8363130506466,1286.5888940737284,687.4917667056199,884.783917735884
1533059828.1629999,783.3916269210387,1098.8726879282806,1329.1180587960803,740.747193597507,1053.0529436286997
1533059828.1660001,629.4342872284049,1035.4691122675047,1339.7449058951624,735.9084953433195,998.7753022372505
1533059828.17,443.7692103868574,1056.6108506363025,1222.7842588271892,731.0697970891321,1088.3375793228033
1533059828.174,403.019342872284,1162.2762635890567,1052.6458236117592,721.3824852154821,803.3591180693871
1533059828.178,588.6751457339693,1130.5744757586688,1158.9796235806502,624.5589433053578,569.951364120617
1533059828.1820002,643.0206677265501,972.0655366067289,1169.6064706797324,634.2363398137328,887.4964102089027
1533059828.186,484.5283518812931,845.280024730795,1116.4504588582984,643.9236516873827,1074.7640001852794
1533059828.19,276.22549019607845,834.719975269205,1180.2550941048373,561.6162045398208,1164.3318356570476
1533059828.194,153.95733969263378,803.018187438817,1137.725929382486,542.2514961577959,985.2017230997267
1533059828.198,412.07074721780606,729.0545623164511,1020.7652823145123,585.8196111760332,985.2017230997267
1533059828.2020001,561.5116587175411,697.352774486063,1052.6458236117592,619.7103296858954,1050.3404511556812
1533059828.205,416.60572337042925,697.352774486063,1137.725929382486,576.1422146676582,1023.1988512668488
1533059828.2089999,276.22549019607845,750.1963006852491,1031.3921294135946,518.0381741563086,814.2146463476771
1533059828.2129998,181.13010068892422,824.159925807615,850.6268470990823,537.4127979036085,621.5165130390477
1533059828.217,448.30418653948067,887.541862022773,840.0,571.2936010481958,1017.7738663208115
1533059828.221,620.3736089030207,834.719975269205,861.2536941981646,566.4549027940083,1270.1801843531427
1533059828.225,470.94197138314786,750.1963006852491,850.6268470990823,566.4549027940083,898.3519384871926
1533059828.2289999,366.7951775304717,834.719975269205,903.7828589205164,566.4549027940083,806.0771689286211
1533059828.2329998,217.35426603073662,813.578236900407,840.0,585.8196111760332,879.3533744036315
1533059828.2370002,384.9072602013778,750.1963006852491,840.0,634.2363398137328,966.2031590161656
1533059828.2410002,638.4856915739268,729.0545623164511,967.5874941670555,706.8564750876448,1134.4777432951967
1533059828.245,579.6237413884472,729.0545623164511,1084.5481412350289,750.434505471157,996.0572513780165
1533059828.248,484.5283518812931,771.316399608429,1127.0773059573805,755.2732037253444,917.3505025707536
1533059828.252,326.036036036036,676.2326755628832,1148.3527764815678,779.4865257268317,876.6408819306129
1533059828.256,448.30418653948067,655.0909371940852,1180.2550941048373,774.6379121073693,1088.3375793228033
1533059828.26,747.1674615792263,707.9128239476531,1275.9402706486235,774.6379121073693,846.7867895687618
1533059828.264,606.7872284048755,591.6873615333093,1318.4694353709754,726.2211834696697,607.9484922877391
1533059828.268,330.561738208797,475.46189911896545,1201.5087883030021,687.4917667056199,860.3548103200704
1533059828.272,140.37095919448856,412.0799629038075,1084.5481412350289,653.6010481957576,982.489230626708
1533059828.276,258.11340752517225,433.2000618269875,988.8629646912428,619.7103296858954,1104.6236509333457
1533059828.28,547.9252782193959,507.1636869493534,925.0583294447036,697.1790785792698,846.7867895687618
1533059828.284,511.70111287758345,433.2000618269875,829.351376574895,702.0177768334572,651.3761637871138
1533059828.2870002,307.9239533651298,316.9745994126436,765.5685176543786,614.8716314317079,670.3747278706749
1533059828.2910001,90.56041335453101,348.6763872430316,914.4314823456214,605.184319558058,765.361989902265
1533059828.295,144.9059353471118,369.79648616621154,1031.3921294135946,634.2363398137328,822.3576821529483
1533059828.299,470.94197138314786,338.1163377814416,903.7828589205164,672.9657565777825,819.6451896799296
1533059828.303,480.0026497085321,285.27281158225566,808.0976823767304,682.6530684514324,830.5007179582194
1533059828.3070002,335.09671436142025,338.1163377814416,914.4314823456214,643.9236516873827,721.9398767891056
1533059828.311,226.41494435612083,486.04358802617344,893.1560118214342,668.1270583235951,871.2103385983603
1533059828.315,267.1648118706942,507.1636869493534,903.7828589205164,682.6530684514324,1031.34188707212
1533059828.319,615.8479067302596,528.3054253181514,1158.9796235806502,750.434505471157,819.6451896799296
1533059828.323,683.7705352411235,538.8654747797414,1169.6064706797324,803.689932363044,966.2031590161656
1533059828.3270001,516.2268150503445,570.5672626101294,1148.3527764815678,764.9605155989943,1332.6008615498633
1533059828.33,362.26020137784843,686.7927250244732,1201.5087883030021,682.6530684514324,1210.4664412432257
1533059828.3339999,326.036036036036,729.0545623164511,1201.5087883030021,687.4917667056199,873.9283894575941
1533059828.3379998,643.0206677265501,718.4945128548611,1339.7449058951624,740.747193597507,966.2031590161656
1533059828.342,806.038685744568,718.4945128548611,1222.7842588271892,760.1119019795318,911.9255176247162
1533059828.346,692.8312135665077,929.8036993147509,1116.4504588582984,721.3824852154821,1047.6279586826624
1533059828.35,470.94197138314786,1109.4327373898707,1190.8819412039197,658.4496618152201,1012.343322988559
1533059828.3539999,375.84658187599365,1077.7309495594827,1361.0203764193498,634.2363398137328,930.9240817082774
1533059828.3579998,697.3569157392686,908.683600391571,1456.7055529631357,610.0329331775205,884.783917735884
1533059828.3620002,783.3916269210387,750.1963006852491,1339.7449058951624,614.8716314317079,721.9398767891056
1533059828.3660002,620.3736089030207,718.4945128548611,1265.313423549541,634.2363398137328,797.9341331233499
1533059828.37,507.16613672496027,781.876449070019,1275.9402706486235,614.8716314317079,963.490666543147
1533059828.373,430.18282988871226,845.280024730795,1212.157411728107,619.7103296858954,917.3505025707536
1533059828.377,652.072072072072,824.159925807615,1201.5087883030021,643.9236516873827,914.638010097735
1533059828.381,806.038685744568,718.4945128548611,1265.313423549541,643.9236516873827,1088.3375793228033
1533059828.385,706.4175940646529,686.7927250244732,1318.4694353709754,672.9657565777825,914.638010097735
1533059828.389,561.5116587175411,686.7927250244732,1446.0787058640535,692.3304649598074,1020.4863587938302
1533059828.393,466.4162692103869,718.4945128548611,1371.6472235184322,682.6530684514324,1058.4834869609524
1533059828.397,683.7705352411235,876.981812561183,1329.1180587960803,687.4917667056199,754.5064616239752
1533059828.401,828.6764705882352,919.243649853161,1414.176388240784,672.9657565777825,1001.4877947102691
1533059828.405,661.1327503974563,887.541862022773,1339.7449058951624,672.9657565777825,920.0629950437723
1533059828.409,516.2268150503445,824.159925807615,1137.725929382486,682.6530684514324,607.9484922877391
1533059828.4120002,384.9072602013778,792.458137977227,914.4314823456214,677.8143701972449,1148.0457640465052
1533059828.4160001,566.037360890302,771.316399608429,914.4314823456214,682.6530684514324,1294.6037333827412
1533059828.42,846.7885532591415,845.280024730795,956.9606470679732,711.7050887071072,1034.0543795451388
1533059828.424,729.0553789083201,908.683600391571,871.9023176232696,726.2211834696697,1020.4863587938302
1533059828.428,611.3222045574987,834.719975269205,882.5291647223519,760.1119019795318,871.2103385983603
1533059828.4320002,480.0026497085321,813.578236900407,956.9606470679732,774.6379121073693,1020.4863587938302
1533059828.436,566.037360890302,771.316399608429,1010.1166588894074,745.5958072169694,1145.3332715734864
1533059828.44,815.0900900900901,697.352774486063,1148.3527764815678,731.0697970891321,963.490666543147
1533059828.444,756.2281399046105,707.9128239476531,1233.4111059262716,769.7992138531818,982.489230626708
1533059828.448,570.563063063063,792.458137977227,1233.4111059262716,750.434505471157,996.0572513780165
1533059828.4520001,307.9239533651298,813.578236900407,1105.823611759216,648.7623499415702,1164.3318356570476
1533059828.455,303.39825119236883,633.9708382709053,999.4898117903251,595.5069230496831,1188.755384686646
1533059828.4589999,624.9085850556439,697.352774486063,1020.7652823145123,648.7623499415702,1031.34188707212
1533059828.4629998,697.3569157392686,834.719975269205,914.4314823456214,735.9084953433195,1036.7668720181573
1533059828.467,566.037360890302,887.541862022773,808.0976823767304,726.2211834696697,1142.6152207142527
1533059828.471,371.32087970323266,929.8036993147509,765.5685176543786,682.6530684514324,1036.7668720181573
1533059828.475,389.43296237413887,940.3853882219589,808.0976823767304,706.8564750876448,583.5249432581408
1533059828.4789999,715.4689984101749,1067.1709000978926,840.0,731.0697970891321,493.9571077863727
1533059828.4829998,787.9266030736619,1130.5744757586688,776.1953647534609,779.4865257268317,721.9398767891056
1533059828.4870002,602.2615262321144,1151.6945746818487,871.9023176232696,779.4865257268317,1213.1844921024597
1533059828.4910002,371.32087970323266,1119.9927868514606,903.7828589205164,692.3304649598074,1234.8955486590394
1533059828.495,321.51033386327504,1024.9090628059148,903.7828589205164,624.5589433053578,1001.4877947102691
1533059828.498,638.4856915739268,1024.9090628059148,946.333799968891,668.1270583235951,1015.0558154615777
1533059828.502,756.2281399046105,982.6472255139369,829.351376574895,755.2732037253444,667.656677011441
1533059828.506,597.7358240593535,887.541862022773,850.6268470990823,760.1119019795318,621.5165130390477
1533059828.51,380.37228404875464,919.243649853161,914.4314823456214,692.3304649598074,890.2089026819214
1533059828.514,339.62241653418124,1014.349013344325,818.7245294758127,672.9657565777825,977.0586872944555
1533059828.518,692.8312135665077,982.6472255139369,956.9606470679732,726.2211834696697,1004.2002871832877
1533059828.522,833.2114467408585,929.8036993147509,978.2143412661378,789.1639222352067,1112.7611283524018
1533059828.526,679.2448330683625,982.6472255139369,871.9023176232696,755.2732037253444,1199.6109129649358
1533059828.53,489.05405405405406,1035.4691122675047,978.2143412661378,653.6010481957576,944.4921024595859
1533059828.534,384.9072602013778,1024.9090628059148,988.8629646912428,585.8196111760332,778.9355690397888
1533059828.5370002,688.3055113937467,982.6472255139369,935.6851765437859,619.7103296858954,1036.7668720181573
1533059828.5410001,901.1340752517223,919.243649853161,903.7828589205164,697.1790785792698,1063.9084719069897
1533059828.545,810.5643879173291,972.0655366067289,903.7828589205164,755.2732037253444,1129.0471999629442
1533059828.549,670.1841547429783,940.3853882219589,840.0,755.2732037253444,1012.343322988559
1533059828.553,529.8131955484897,781.876449070019,733.666200031109,677.8143701972449,629.6595488443189
1533059828.5570002,733.581081081081,750.1963006852491,786.8222118525432,663.2883600694075,787.07860484506
1533059828.561,923.7718600953895,750.1963006852491,861.2536941981646,711.7050887071072,884.783917735884
1533059828.565,810.5643879173291,739.6146117780411,818.7245294758127,726.2211834696697,854.929825374033
1533059828.569,615.8479067302596,792.458137977227,808.0976823767304,653.6010481957576,1137.1902357682152
1533059828.573,384.9072602013778,792.458137977227,797.4708352776481,610.0329331775205,890.2089026819214
1533059828.5770001,575.0980392156863,781.876449070019,840.0,648.7623499415702,689.3677335680208
1533059828.58,806.038685744568,855.840074192385,946.333799968891,658.4496618152201,971.6337023484182
1533059828.5839999,710.9432962374138,866.421763099593,988.8629646912428,672.9657565777825,966.2031590161656
1533059828.5879998,602.2615262321144,834.719975269205,1095.174988334111,682.6530684514324,632.3775997035527
1533059828.592,457.35559088500264,834.719975269205,1073.9212941359465,658.4496618152201,586.2374357311594
1533059828.596,588.6751457339693,803.018187438817,978.2143412661378,648.7623499415702,738.225948399648
1533059828.6,846.7885532591415,792.458137977227,1042.018976512677,721.3824852154821,1088.3375793228033
1533059828.6039999,806.038685744568,760.756350146839,1095.174988334111,803.689932363044,922.7810459030062
1533059828.6079998,652.072072072072,803.018187438817,1073.9212941359465,760.1119019795318,605.2359998147205
1533059828.6120002,466.4162692103869,876.981812561183,1020.7652823145123,726.2211834696697,884.783917735884
1533059828.6160002,575.0980392156863,803.018187438817,1010.1166588894074,760.1119019795318,1001.4877947102691
1533059828.62,837.7371489136195,771.316399608429,1010.1166588894074,769.7992138531818,1050.3404511556812
1533059828.623,792.4523052464228,908.683600391571,903.7828589205164,755.2732037253444,996.0572513780165
1533059828.627,638.4856915739268,1014.349013344325,840.0,716.5437869612947,597.0929640094492
1533059828.631,448.30418653948067,1003.7673244371168,733.666200031109,629.3976415595453,491.244615313354
1533059828.635,493.57975622681505,1056.6108506363025,776.1953647534609,610.0329331775205,914.638010097735
1533059828.639,864.9099099099099,1109.4327373898707,850.6268470990823,711.7050887071072,1229.4650053267867
1533059828.643,869.4356120826709,1024.9090628059148,723.0393529320268,827.8933389992563,1080.194543517532
1533059828.647,692.8312135665077,876.981812561183,797.4708352776481,832.7419526187188,911.9255176247162
1533059828.651,538.8645998940117,898.123550929981,978.2143412661378,769.7992138531818,743.6509333456853
1533059828.655,480.0026497085321,813.578236900407,967.5874941670555,706.8564750876448,930.9240817082774
1533059828.659,751.6931637519873,729.0545623164511,925.0583294447036,716.5437869612947,1199.6109129649358
1533059828.6620002,783.3916269210387,803.018187438817,967.5874941670555,784.3252239810191,1134.4777432951967
1533059828.6660001,638.4856915739268,792.458137977227,1073.9212941359465,760.1119019795318,1023.1988512668488
1533059828.67,511.70111287758345,760.756350146839,1010.1166588894074,726.2211834696697,901.0644309602112
1533059828.674,434.71780604133545,792.458137977227,935.6851765437859,731.0697970891321,1175.1873639353375
1533059828.678,738.1160572337043,739.6146117780411,935.6851765437859,760.1119019795318,1112.7611283524018
1533059828.6820002,860.3749337572867,570.5672626101294,1031.3921294135946,818.2159424908814,968.9156514891843
1533059828.686,729.0553789083201,528.3054253181514,1275.9402706486235,871.4713693827686,1088.3375793228033
1533059828.69,593.2101218865924,633.9708382709053,1244.0379530253538,881.1487658911434,1072.051507712261
1533059828.694,466.4162692103869,760.756350146839,1137.725929382486,808.5286306172314,977.0586872944555
1533059828.698,715.4689984101749,813.578236900407,1158.9796235806502,769.7992138531818,711.0843485108157
1533059828.7020001,842.2628510863805,813.578236900407,1042.018976512677,818.2159424908814,531.9542359534948
1533059828.705,665.6584525702173,739.6146117780411,946.333799968891,779.4865257268317,678.5122052897309
1533059828.7089999,470.94197138314786,729.0545623164511,935.6851765437859,672.9657565777825,963.490666543147
1533059828.7129998,321.51033386327504,729.0545623164511,914.4314823456214,634.2363398137328,854.929825374033
1533059828.717,566.037360890302,686.7927250244732,914.4314823456214,663.2883600694075,773.5050257075362
1533059828.721,778.8659247482777,729.0545623164511,935.6851765437859,779.4865257268317,939.0615591273333
1533059828.725,661.1327503974563,729.0545623164511,861.2536941981646,789.1639222352067,865.7853536523229
1533059828.7289999,475.46767355590885,771.316399608429,871.9023176232696,702.0177768334572,667.656677011441
1533059828.7329998,344.1481187069422,781.876449070019,914.4314823456214,697.1790785792698,681.2302561489647
1533059828.7370002,584.1494435612083,697.352774486063,882.5291647223519,735.9084953433195,944.4921024595859
1533059828.7410002,783.3916269210387,655.0909371940852,914.4314823456214,726.2211834696697,949.9226457918385
1533059828.744,674.7191308956014,792.458137977227,914.4314823456214,672.9657565777825,1085.6250868497846
1533059828.748,584.1494435612083,866.421763099593,935.6851765437859,672.9657565777825,1082.9070359905506
1533059828.752,407.5450450450451,803.018187438817,903.7828589205164,634.2363398137328,759.9370049562277
1533059828.756,566.037360890302,855.840074192385,935.6851765437859,605.184319558058,762.6494974292464
1533059828.76,819.6250662427133,908.683600391571,1020.7652823145123,634.2363398137328,800.6466255963685
1533059828.764,701.8826179120297,792.458137977227,978.2143412661378,653.6010481957576,789.7910973180786
1533059828.768,538.8645998940117,750.1963006852491,1063.2944470368643,624.5589433053578,1009.6308305155403
1533059828.772,348.6738208797032,781.876449070019,1073.9212941359465,556.7775062856333,1305.4592616610312
1533059828.776,475.46767355590885,771.316399608429,1010.1166588894074,571.2936010481958,1126.3347074899254
1533059828.78,747.1674615792263,760.756350146839,1063.2944470368643,590.6682247954956,1148.0457640465052
1533059828.784,665.6584525702173,707.9128239476531,1063.2944470368643,580.9809129218456,1177.899856408356
1533059828.7870002,534.3388977212506,665.6509866556751,1010.1166588894074,551.9288926661709,901.0644309602112
1533059828.7910001,439.24350821409644,697.352774486063,956.9606470679732,532.564184284146,659.5136412061698
1533059828.795,547.9252782193959,729.0545623164511,946.333799968891,585.8196111760332,607.9484922877391
1533059828.799,783.3916269210387,750.1963006852491,956.9606470679732,600.3456213038705,963.490666543147
1533059828.803,738.1160572337043,718.4945128548611,861.2536941981646,580.9809129218456,1042.19741535041
1533059828.8070002,602.2615262321144,803.018187438817,840.0,590.6682247954956,1153.4763073787576
1533059828.811,421.13142554319023,961.5054871451389,978.2143412661378,595.5069230496831,1278.323220158414
1533059828.815,416.60572337042925,929.8036993147509,1063.2944470368643,624.5589433053578,1272.8926768261615
1533059828.819,719.9947005829358,950.9454376835489,1031.3921294135946,668.1270583235951,1180.6123488813748
1533059828.823,715.4689984101749,919.243649853161,882.5291647223519,682.6530684514324,819.6451896799296
1533059828.8270001,511.70111287758345,855.840074192385,903.7828589205164,677.8143701972449,933.636574181296
1533059828.83,389.43296237413887,845.280024730795,956.9606470679732,711.7050887071072,1186.0428922136273
1533059828.8339999,384.9072602013778,834.719975269205,882.5291647223519,687.4917667056199,911.9255176247162
1533059828.8379998,661.1327503974563,866.421763099593,882.5291647223519,658.4496618152201,838.6437537634906
1533059828.842,747.1674615792263,919.243649853161,776.1953647534609,706.8564750876448,1025.9113437398676
1533059828.846,575.0980392156863,898.123550929981,691.1370353087573,697.1790785792698,1365.1730047709482
1533059828.85,371.32087970323266,929.8036993147509,701.7638824078394,639.0750380679202,1278.323220158414
1533059828.8539999,339.62241653418124,972.0655366067289,648.6078705864054,668.1270583235951,1077.4820510445134
1533059828.8579998,633.9599894011659,940.3853882219589,627.3324000622181,721.3824852154821,797.9341331233499
1533059828.8620002,670.1841547429783,845.280024730795,744.2930471301913,750.434505471157,518.3862152021863
1533059828.8660002,525.2782193958665,771.316399608429,882.5291647223519,735.9084953433195,450.5349946732132
1533059828.869,407.5450450450451,792.458137977227,893.1560118214342,721.3824852154821,453.2474871462319
1533059828.873,371.32087970323266,803.018187438817,925.0583294447036,716.5437869612947,559.0958358423271
1533059828.877,656.6070482246953,803.018187438817,999.4898117903251,726.2211834696697,727.3648617351429
1533059828.881,760.7538420773715,834.719975269205,956.9606470679732,764.9605155989943,610.6609847607577
1533059828.885,620.3736089030207,739.6146117780411,797.4708352776481,745.5958072169694,540.097271758766
1533059828.889,439.24350821409644,760.756350146839,882.5291647223519,706.8564750876448,594.3804715364306
1533059828.893,307.9239533651298,919.243649853161,988.8629646912428,658.4496618152201,846.7867895687618
1533059828.897,543.3995760466348,993.2072749755268,850.6268470990823,614.8716314317079,1145.3332715734864
1533059828.901,683.7705352411235,1067.1709000978926,840.0,624.5589433053578,827.7882254852008
1533059828.905,575.0980392156863,1151.6945746818487,946.333799968891,605.184319558058,928.2060308490435
1533059828.909,416.60572337042925,1035.4691122675047,956.9606470679732,566.4549027940083,1177.899856408356
1533059828.9120002,221.88924218335984,940.3853882219589,850.6268470990823,532.564184284146,1072.051507712261
1533059828.9160001,403.019342872284,972.0655366067289,956.9606470679732,551.9288926661709,846.7867895687618
1533059828.92,624.9085850556439,898.123550929981,1084.5481412350289,653.6010481957576,835.931261290472
1533059828.924,584.1494435612083,876.981812561183,956.9606470679732,731.0697970891321,1074.7640001852794
1533059828.928,393.95866454689985,866.421763099593,797.4708352776481,648.7623499415702,654.0886562601324
1533059828.9320002,158.49231584525702,845.280024730795,786.8222118525432,576.1422146676582,708.3662976515818
1533059828.936,362.26020137784843,771.316399608429,797.4708352776481,571.2936010481958,1286.46069757747
1533059828.94,624.9085850556439,771.316399608429,712.3907295069217,629.3976415595453,1479.1588308860994
1533059828.944,511.70111287758345,824.159925807615,754.9416705552964,672.9657565777825,1229.4650053267867
1533059828.948,357.73449920508745,845.280024730795,818.7245294758127,653.6010481957576,852.2117745147992
1533059828.9520001,203.7678855325914,803.018187438817,723.0393529320268,624.5589433053578,890.2089026819214
1533059828.955,326.036036036036,644.5308877324952,882.5291647223519,590.6682247954956,958.0601232108944
1533059828.9589999,588.6751457339693,538.8654747797414,1073.9212941359465,595.5069230496831,1042.19741535041
1533059828.9629998,579.6237413884472,443.7601112885775,956.9606470679732,639.0750380679202,1123.6222150169067
1533059828.967,511.70111287758345,454.3418001957855,765.5685176543786,672.9657565777825,955.3476307378758
1533059828.971,316.97535771065185,538.8654747797414,744.2930471301913,629.3976415595453,876.6408819306129
1533059828.975,371.32087970323266,623.3891493636972,914.4314823456214,624.5589433053578,936.3490666543147
1533059828.9789999,697.3569157392686,612.8290999021073,967.5874941670555,706.8564750876448,1077.4820510445134
1533059828.9829998,683.7705352411235,496.6036374877634,850.6268470990823,726.2211834696697,1153.4763073787576
1533059828.9870002,566.037360890302,549.4255242413313,903.7828589205164,716.5437869612947,1215.8969845754782
1533059828.9910002,407.5450450450451,644.5308877324952,956.9606470679732,721.3824852154821,868.4978461253417
1533059828.994,470.94197138314786,729.0545623164511,1010.1166588894074,760.1119019795318,884.783917735884
1533059828.998,801.5129835718071,707.9128239476531,1073.9212941359465,852.1066610007437,882.0658668766501
1533059829.002,774.3402225755167,602.2690504405174,967.5874941670555,876.310067636956,968.9156514891843
1533059829.006,575.0980392156863,623.3891493636972,850.6268470990823,808.5286306172314,922.7810459030062
1533059829.01,421.13142554319023,623.3891493636972,978.2143412661378,789.1639222352067,651.3761637871138
1533059829.014,425.6571277159512,581.1273120717193,1180.2550941048373,760.1119019795318,911.9255176247162
1533059829.018,679.2448330683625,570.5672626101294,1329.1180587960803,731.0697970891321,806.0771689286211
1533059829.022,715.4689984101749,528.3054253181514,1392.9009177165965,740.747193597507,697.510769373292
1533059829.026,543.3995760466348,433.2000618269875,1382.2740706175143,692.3304649598074,686.6552410950021
1533059829.03,353.20879703232646,433.2000618269875,1403.5495411417016,595.5069230496831,830.5007179582194
1533059829.034,362.26020137784843,475.46189911896545,1350.371752994245,590.6682247954956,895.6394460141739
1533059829.0370002,638.4856915739268,464.90184965737546,1265.313423549541,585.8196111760332,941.7796099865673
1533059829.0410001,706.4175940646529,496.6036374877634,1180.2550941048373,600.3456213038705,1186.0428922136273
1533059829.045,633.9599894011659,549.4255242413313,1031.3921294135946,648.7623499415702,1104.6236509333457
1533059829.049,511.70111287758345,644.5308877324952,1084.5481412350289,585.8196111760332,1101.9056000741118
1533059829.053,393.95866454689985,644.5308877324952,1095.174988334111,522.886787775771,909.2074667654824
1533059829.0570002,633.9599894011659,623.3891493636972,978.2143412661378,590.6682247954956,732.7954050673954
1533059829.061,828.6764705882352,739.6146117780411,935.6851765437859,672.9657565777825,985.2017230997267
1533059829.065,733.581081081081,729.0545623164511,946.333799968891,702.0177768334572,1034.0543795451388
1533059829.069,552.4509803921569,729.0545623164511,1073.9212941359465,706.8564750876448,895.6394460141739
1533059829.073,416.60572337042925,771.316399608429,1201.5087883030021,692.3304649598074,977.0586872944555
1533059829.0770001,661.1327503974563,781.876449070019,1244.0379530253538,726.2211834696697,1167.0443281300663
1533059829.08,842.2628510863805,887.541862022773,1233.4111059262716,789.1639222352067,1313.6022974663024
1533059829.0839999,724.5296767355591,887.541862022773,1137.725929382486,798.8512341088566,1180.6123488813748
1533059829.0879998,543.3995760466348,845.280024730795,1148.3527764815678,726.2211834696697,1028.6293945991015
1533059829.092,362.26020137784843,919.243649853161,1095.174988334111,648.7623499415702,1091.0500717958219
1533059829.096,570.563063063063,876.981812561183,946.333799968891,687.4917667056199,1120.904164157673
1533059829.1,765.2795442501325,781.876449070019,861.2536941981646,735.9084953433195,1055.7654361017185
1533059829.1039999,611.3222045574987,803.018187438817,1010.1166588894074,731.0697970891321,735.5078975404141
1533059829.1079998,461.8812930577636,845.280024730795,1105.823611759216,692.3304649598074,700.2288202325258
1533059829.1120002,344.1481187069422,750.1963006852491,1169.6064706797324,706.8564750876448,920.0629950437723
1533059829.1160002,516.2268150503445,644.5308877324952,1350.371752994245,750.434505471157,911.9255176247162
1533059829.119,756.2281399046105,718.4945128548611,1254.686576450459,774.6379121073693,732.7954050673954
1533059829.123,670.1841547429783,803.018187438817,1073.9212941359465,764.9605155989943,822.3576821529483
1533059829.127,507.16613672496027,792.458137977227,1095.174988334111,755.2732037253444,982.489230626708
1533059829.131,321.51033386327504,739.6146117780411,1180.2550941048373,769.7992138531818,1142.6152207142527
1533059829.135,480.0026497085321,644.5308877324952,1254.686576450459,774.6379121073693,852.2117745147992
1533059829.139,756.2281399046105,612.8290999021073,1180.2550941048373,774.6379121073693,564.5263791745797
1533059829.143,670.1841547429783,570.5672626101294,988.8629646912428,731.0697970891321,852.2117745147992
1533059829.147,516.2268150503445,591.6873615333093,1148.3527764815678,716.5437869612947,928.2060308490435
1533059829.151,316.97535771065185,707.9128239476531,1190.8819412039197,663.2883600694075,708.3662976515818
1533059829.155,389.43296237413887,718.4945128548611,1137.725929382486,605.184319558058,1123.6222150169067
1533059829.159,738.1160572337043,676.2326755628832,1190.8819412039197,692.3304649598074,1096.4806151280745
1533059829.1620002,679.2448330683625,739.6146117780411,1212.157411728107,755.2732037253444,618.804020566029
1533059829.1660001,498.11473237943824,781.876449070019,1329.1180587960803,735.9084953433195,993.3447589049979
1533059829.17,344.1481187069422,792.458137977227,1275.9402706486235,677.8143701972449,1367.885497243967
1533059829.174,389.43296237413887,771.316399608429,1116.4504588582984,726.2211834696697,911.9255176247162
1533059829.178,715.4689984101749,760.756350146839,1190.8819412039197,779.4865257268317,502.10014359164387
1533059829.1820002,670.1841547429783,655.0909371940852,1265.313423549541,721.3824852154821,597.0929640094492
1533059829.186,498.11473237943824,602.2690504405174,1212.157411728107,697.1790785792698,936.3490666543147
1533059829.19,371.32087970323266,771.316399608429,1158.9796235806502,697.1790785792698,1234.8955486590394
1533059829.194,357.73449920508745,887.541862022773,1212.157411728107,697.1790785792698,1248.4635694103479
1533059829.198,674.7191308956014,834.719975269205,1329.1180587960803,779.4865257268317,982.489230626708
1533059829.201,756.2281399046105,750.1963006852491,1297.2157411728108,827.8933389992563,1099.193107601093
1533059829.205,643.0206677265501,792.458137977227,1127.0773059573805,832.7419526187188,966.2031590161656
1533059829.2089999,480.0026497085321,887.541862022773,1010.1166588894074,789.1639222352067,583.5249432581408
1533059829.2129998,407.5450450450451,1003.7673244371168,946.333799968891,731.0697970891321,977.0586872944555
1533059829.217,715.4689984101749,950.9454376835489,882.5291647223519,823.0546407450689,1072.051507712261
1533059829.221,769.8145204027556,824.159925807615,691.1370353087573,876.310067636956,930.9240817082774
1533059829.225,606.7872284048755,750.1963006852491,584.8032353398662,847.2679627465562,882.0658668766501
1533059829.2289999,489.05405405405406,834.719975269205,871.9023176232696,866.632671128581,822.3576821529483
1533059829.2329998,412.07074721780606,855.840074192385,978.2143412661378,871.4713693827686,882.0658668766501
1533059829.2370002,665.6584525702173,866.421763099593,956.9606470679732,876.310067636956,602.5235073417018
1533059829.2410002,810.5643879173291,919.243649853161,988.8629646912428,924.7267962746556,998.7753022372505
1533059829.244,719.9947005829358,1014.349013344325,893.1560118214342,948.9302029108679,1131.7596924359627
1533059829.248,547.9252782193959,1109.4327373898707,850.6268470990823,876.310067636956,854.929825374033
1533059829.252,330.561738208797,1024.9090628059148,765.5685176543786,784.3252239810191,968.9156514891843
1533059829.256,534.3388977212506,972.0655366067289,893.1560118214342,755.2732037253444,933.636574181296
1533059829.26,742.6417594064653,972.0655366067289,1020.7652823145123,760.1119019795318,998.7753022372505
1533059829.264,602.2615262321144,940.3853882219589,946.333799968891,755.2732037253444,968.9156514891843
1533059829.268,425.6571277159512,855.840074192385,914.4314823456214,653.6010481957576,1053.0529436286997
1533059829.272,276.22549019607845,739.6146117780411,871.9023176232696,619.7103296858954,1107.3361434063643
1533059829.276,480.0026497085321,718.4945128548611,893.1560118214342,677.8143701972449,1498.1573949696606
1533059829.28,692.8312135665077,792.458137977227,861.2536941981646,711.7050887071072,1308.1773125202649
1533059829.284,606.7872284048755,718.4945128548611,723.0393529320268,731.0697970891321,507.53068692389644
1533059829.2870002,484.5283518812931,633.9708382709053,786.8222118525432,697.1790785792698,439.67946639492334
1533059829.2910001,335.09671436142025,750.1963006852491,776.1953647534609,706.8564750876448,507.53068692389644
1533059829.295,493.57975622681505,760.756350146839,648.6078705864054,755.2732037253444,556.3833433693085
1533059829.299,778.8659247482777,771.316399608429,733.666200031109,803.689932363044,637.80258464959
1533059829.303,747.1674615792263,792.458137977227,723.0393529320268,823.0546407450689,605.2359998147205
1533059829.3070002,566.037360890302,855.840074192385,627.3324000622181,769.7992138531818,692.0857844272546
1533059829.311,384.9072602013778,898.123550929981,733.666200031109,721.3824852154821,675.7997128167123
1533059829.315,570.563063063063,929.8036993147509,712.3907295069217,731.0697970891321,844.0742970957432
1533059829.319,887.5476947535772,1014.349013344325,659.2347176854877,774.6379121073693,1240.3260919912918
1533059829.323,783.3916269210387,972.0655366067289,606.0787058640535,769.7992138531818,1020.4863587938302
1533059829.326,570.563063063063,919.243649853161,627.3324000622181,745.5958072169694,833.2132104312382
1533059829.33,393.95866454689985,972.0655366067289,786.8222118525432,721.3824852154821,1224.0400203807494
1533059829.3339999,461.8812930577636,950.9454376835489,893.1560118214342,706.8564750876448,1175.1873639353375
1533059829.3379998,751.6931637519873,876.981812561183,829.351376574895,735.9084953433195,892.9269535411552
1533059829.342,765.2795442501325,813.578236900407,754.9416705552964,789.1639222352067,686.6552410950021
1533059829.346,570.563063063063,771.316399608429,925.0583294447036,716.5437869612947,977.0586872944555
1533059829.35,330.561738208797,813.578236900407,1010.1166588894074,600.3456213038705,754.5064616239752
1533059829.3539999,403.019342872284,771.316399608429,1063.2944470368643,643.9236516873827,711.0843485108157
1533059829.3579998,751.6931637519873,729.0545623164511,1127.0773059573805,745.5958072169694,985.2017230997267
1533059829.3620002,765.2795442501325,739.6146117780411,1212.157411728107,764.9605155989943,1009.6308305155403
1533059829.3660002,552.4509803921569,665.6509866556751,1222.7842588271892,702.0177768334572,1063.9084719069897
1533059829.369,330.561738208797,633.9708382709053,1105.823611759216,639.0750380679202,952.6351382648571
1533059829.373,289.8118706942236,570.5672626101294,967.5874941670555,614.8716314317079,1015.0558154615777
1533059829.377,615.8479067302596,633.9708382709053,1010.1166588894074,687.4917667056199,1020.4863587938302
1533059829.381,719.9947005829358,686.7927250244732,1073.9212941359465,755.2732037253444,928.2060308490435
1533059829.385,584.1494435612083,560.0072131485393,1137.725929382486,706.8564750876448,1343.4563898281533
1533059829.389,425.6571277159512,507.1636869493534,1265.313423549541,697.1790785792698,1145.3332715734864
1533059829.393,389.43296237413887,623.3891493636972,1275.9402706486235,731.0697970891321,909.2074667654824
1533059829.397,692.8312135665077,623.3891493636972,1371.6472235184322,769.7992138531818,1085.6250868497846
1533059829.401,760.7538420773715,464.90184965737546,1456.7055529631357,789.1639222352067,730.0829125943768
1533059829.405,579.6237413884472,380.3781750734195,1477.981023487323,784.3252239810191,613.3790356199917
1533059829.409,398.49364069952304,412.0799629038075,1563.0393529320268,726.2211834696697,968.9156514891843
1533059829.4120002,321.51033386327504,401.4982739965995,1669.3731529009178,672.9657565777825,1161.6137847978137
1533059829.4160001,643.0206677265501,338.1163377814416,1648.0976823767305,731.0697970891321,1009.6308305155403
1533059829.42,769.8145204027556,359.23643670462155,1520.5101882096749,764.9605155989943,936.3490666543147
1533059829.424,606.7872284048755,359.23643670462155,1318.4694353709754,726.2211834696697,1115.4791792116355
1533059829.428,457.35559088500264,443.7601112885775,1137.725929382486,726.2211834696697,738.225948399648
1533059829.4320002,348.6738208797032,591.6873615333093,1222.7842588271892,716.5437869612947,542.8097642317847
1533059829.436,584.1494435612083,602.2690504405174,1307.842588271893,735.9084953433195,1129.0471999629442
1533059829.44,729.0553789083201,665.6509866556751,1201.5087883030021,726.2211834696697,1275.60516929918
1533059829.444,661.1327503974563,718.4945128548611,1137.725929382486,726.2211834696697,1004.2002871832877
1533059829.448,552.4509803921569,697.352774486063,1063.2944470368643,687.4917667056199,884.783917735884
1533059829.451,312.4496555378908,591.6873615333093,925.0583294447036,590.6682247954956,903.7824818194451
1533059829.455,461.8812930577636,528.3054253181514,988.8629646912428,653.6010481957576,1044.9099078234285
1533059829.4589999,756.2281399046105,570.5672626101294,1127.0773059573805,794.0026204893941,936.3490666543147
1533059829.4629998,670.1841547429783,612.8290999021073,1095.174988334111,813.377244236694,743.6509333456853
1533059829.467,484.5283518812931,718.4945128548611,988.8629646912428,745.5958072169694,1023.1988512668488
1533059829.471,312.4496555378908,739.6146117780411,861.2536941981646,721.3824852154821,1069.3390152392421
1533059829.475,480.0026497085321,824.159925807615,871.9023176232696,760.1119019795318,906.4949742924638
1533059829.4789999,783.3916269210387,908.683600391571,1010.1166588894074,842.4193491270937,920.0629950437723
1533059829.4829998,701.8826179120297,876.981812561183,999.4898117903251,852.1066610007437,892.9269535411552
1533059829.4870002,502.6404345521993,876.981812561183,850.6268470990823,760.1119019795318,958.0601232108944
1533059829.4910002,326.036036036036,919.243649853161,776.1953647534609,692.3304649598074,941.7796099865673
1533059829.494,452.82988871224165,876.981812561183,871.9023176232696,716.5437869612947,797.9341331233499
1533059829.498,742.6417594064653,824.159925807615,1031.3921294135946,726.2211834696697,746.363425818704
1533059829.502,683.7705352411235,824.159925807615,882.5291647223519,687.4917667056199,898.3519384871926
1533059829.506,520.7525172231054,729.0545623164511,701.7638824078394,590.6682247954956,1001.4877947102691
1533059829.51,326.036036036036,760.756350146839,871.9023176232696,542.2514961577959,1025.9113437398676
1533059829.514,366.7951775304717,824.159925807615,967.5874941670555,580.9809129218456,708.3662976515818
1533059829.518,611.3222045574987,803.018187438817,946.333799968891,547.0901944119835,787.07860484506
1533059829.522,602.2615262321144,866.421763099593,935.6851765437859,590.6682247954956,1069.3390152392421
1533059829.526,480.0026497085321,845.280024730795,967.5874941670555,639.0750380679202,1034.0543795451388
1533059829.53,285.2861685214626,855.840074192385,925.0583294447036,576.1422146676582,963.490666543147
1533059829.533,271.6997880233174,876.981812561183,935.6851765437859,513.1994759021212,1194.1859280188985
1533059829.5370002,556.9766825649178,824.159925807615,1020.7652823145123,493.8347675200963,1332.6008615498633
1533059829.5410001,597.7358240593535,718.4945128548611,1010.1166588894074,532.564184284146,987.9142155727454
1533059829.545,498.11473237943824,655.0909371940852,1031.3921294135946,547.0901944119835,993.3447589049979
1533059829.549,353.20879703232646,750.1963006852491,1042.018976512677,532.564184284146,1006.9127796563065
1533059829.553,344.1481187069422,803.018187438817,1010.1166588894074,527.7254860299586,960.7781740701283
1533059829.5570002,692.8312135665077,803.018187438817,1042.018976512677,653.6010481957576,618.804020566029
1533059829.561,806.038685744568,781.876449070019,1073.9212941359465,726.2211834696697,713.7968409838344
1533059829.565,683.7705352411235,803.018187438817,1020.7652823145123,702.0177768334572,914.638010097735
1533059829.569,516.2268150503445,982.6472255139369,850.6268470990823,682.6530684514324,580.8068923989068
1533059829.573,425.6571277159512,972.0655366067289,701.7638824078394,605.184319558058,670.3747278706749
1533059829.576,738.1160572337043,760.756350146839,669.86156478457,605.184319558058,1004.2002871832877
1533059829.58,883.0219925808161,697.352774486063,765.5685176543786,706.8564750876448,1104.6236509333457
1533059829.5839999,688.3055113937467,676.2326755628832,829.351376574895,731.0697970891321,963.490666543147
1533059829.5879998,502.6404345521993,760.756350146839,754.9416705552964,668.1270583235951,1139.902728241234
1533059829.592,398.49364069952304,908.683600391571,733.666200031109,663.2883600694075,1319.0328407985548
1533059829.596,683.7705352411235,940.3853882219589,733.666200031109,740.747193597507,1006.9127796563065
1533059829.6,864.9099099099099,855.840074192385,850.6268470990823,784.3252239810191,681.2302561489647
1533059829.6039999,665.6584525702173,845.280024730795,871.9023176232696,740.747193597507,895.6394460141739
1533059829.6079998,466.4162692103869,845.280024730795,723.0393529320268,677.8143701972449,952.6351382648571
1533059829.6120002,362.26020137784843,771.316399608429,606.0787058640535,668.1270583235951,854.929825374033
1533059829.6160002,584.1494435612083,792.458137977227,627.3324000622181,692.3304649598074,1074.7640001852794
1533059829.619,801.5129835718071,813.578236900407,606.0787058640535,702.0177768334572,1093.7625642688406
1533059829.623,674.7191308956014,665.6509866556751,595.4300824389485,735.9084953433195,700.2288202325258
1533059829.627,470.94197138314786,570.5672626101294,744.2930471301913,682.6530684514324,480.38908703506416
1533059829.631,303.39825119236883,633.9708382709053,765.5685176543786,614.8716314317079,781.6480615128074
1533059829.635,534.3388977212506,697.352774486063,733.666200031109,672.9657565777825,930.9240817082774
1533059829.639,810.5643879173291,718.4945128548611,893.1560118214342,745.5958072169694,765.361989902265
1533059829.643,688.3055113937467,771.316399608429,914.4314823456214,764.9605155989943,702.9413127055445
1533059829.647,507.16613672496027,813.578236900407,861.2536941981646,697.1790785792698,797.9341331233499
1533059829.651,339.62241653418124,834.719975269205,786.8222118525432,634.2363398137328,1080.194543517532
1533059829.655,507.16613672496027,876.981812561183,701.7638824078394,740.747193597507,1137.1902357682152
1533059829.658,778.8659247482777,876.981812561183,850.6268470990823,803.689932363044,1186.0428922136273
1533059829.6620002,765.2795442501325,887.541862022773,765.5685176543786,842.4193491270937,868.4978461253417
1533059829.6660001,615.8479067302596,940.3853882219589,701.7638824078394,818.2159424908814,941.7796099865673
1533059829.67,362.26020137784843,961.5054871451389,691.1370353087573,731.0697970891321,1386.884061327528
1533059829.674,489.05405405405406,845.280024730795,818.7245294758127,764.9605155989943,1321.7453332715736
1533059829.678,787.9266030736619,739.6146117780411,967.5874941670555,803.689932363044,1085.6250868497846
1533059829.6820002,760.7538420773715,781.876449070019,871.9023176232696,798.8512341088566,705.6538051785632
1533059829.686,633.9599894011659,929.8036993147509,840.0,774.6379121073693,683.9427486219835
1533059829.69,412.07074721780606,1035.4691122675047,893.1560118214342,721.3824852154821,819.6451896799296
1533059829.694,434.71780604133545,898.123550929981,829.351376574895,682.6530684514324,985.2017230997267
1533059829.698,774.3402225755167,739.6146117780411,871.9023176232696,755.2732037253444,1093.7625642688406
1533059829.701,774.3402225755167,697.352774486063,956.9606470679732,818.2159424908814,724.6523692621242
1533059829.705,602.2615262321144,739.6146117780411,978.2143412661378,784.3252239810191,711.0843485108157
1533059829.7089999,398.49364069952304,697.352774486063,946.333799968891,711.7050887071072,911.9255176247162
1533059829.7129998,380.37228404875464,623.3891493636972,893.1560118214342,677.8143701972449,1012.343322988559
1533059829.717,710.9432962374138,655.0909371940852,1010.1166588894074,716.5437869612947,1058.4834869609524
1533059829.721,774.3402225755167,707.9128239476531,1084.5481412350289,803.689932363044,749.0814766779379
1533059829.725,584.1494435612083,707.9128239476531,1073.9212941359465,774.6379121073693,683.9427486219835
1533059829.7289999,326.036036036036,739.6146117780411,1063.2944470368643,677.8143701972449,917.3505025707536
1533059829.7329998,298.86327503974564,855.840074192385,999.4898117903251,658.4496618152201,952.6351382648571
1533059829.7370002,710.9432962374138,929.8036993147509,1063.2944470368643,745.5958072169694,493.9571077863727
