timestamps,TP9,AF7,AF8,TP10,Right AUX
1533058340.782,1112.2342034088408,1538.7613538535893,1209.48867527928,1129.5080268570257,839.9999999999998
1533058340.786,992.861168887406,1546.190693389316,1248.2369334687417,1069.6092101099803,863.6221439999998
1533058340.79,966.6538415123271,1538.7613538535893,1278.6811837226328,1083.868329641825,1007.9999999999998
1533058340.794,1054.0056364423685,1536.2798326562051,1270.377175787062,1052.4935934658567,905.6248319999999
1533058340.7979999,1077.2970632289573,1518.9345577018923,1262.0731678514912,1115.2430658177936,671.9999999999998
1533058340.802,1068.5612874372644,1521.4160788992765,1223.3249096620298,1149.4742991060407,711.3738239999998
1533058340.806,1097.6785524139448,1536.2798326562051,1181.8105382489782,1072.4598657148717,892.4966399999998
1533058340.81,1080.2070008305589,1523.8925254111855,1162.4364091542475,1100.9839462859488,1010.6234879999998
1533058340.814,1001.5909816922104,1509.0236969687817,1145.828393283106,1106.691099003119,787.4979839999999
1533058340.8170002,1013.2426580723935,1496.636389723762,1156.898514442266,1078.1670184320421,923.9999999999998
1533058340.821,1077.2970632289573,1504.070803944964,1170.7404170898183,1115.2430658177936,692.9986559999998
1533058340.825,1080.2070008305589,1518.9345577018923,1151.3662879950873,1149.4742991060407,632.6261759999998
1533058340.829,1088.9427766222518,1521.4160788992765,1109.8519165820362,1135.2093380668089,1065.7489919999998
1533058340.833,1059.8255116455714,1504.070803944964,1076.6358848397533,1072.4598657148717,997.5006719999998
1533058340.8370001,1013.2426580723935,1489.20197550256,1046.1916345858622,1023.9753544021669,619.4979839999999
1533058340.841,1071.471225038866,1504.070803944964,1054.495642521433,1018.2682016849967,687.7463039999998
1533058340.845,1091.8527142238534,1518.9345577018923,1048.9577478094516,1041.0851295389034,1049.9973119999997
1533058340.849,975.38961730402,1491.6784220144689,1010.2094896199899,1052.4935934658567,871.4979839999999
1533058340.853,981.2154554941116,1479.2911147694492,982.5370208544907,1041.0851295389034,627.3738239999998
1533058340.856,1141.3514683855212,1474.333147060156,929.946860017477,1015.4175460801051,627.3738239999998
1533058340.86,1173.3786709638032,1481.767561281358,960.391110271368,1061.0514017879186,616.8744959999998
1533058340.8639998,1024.888371465688,1504.070803944964,1032.3554002031126,1129.5080268570257,889.8731519999998
1533058340.8679998,1024.888371465688,1484.244007793267,982.5370208544907,1026.8260100070586,1112.9986559999998
1533058340.8720002,1004.5068822807006,1459.4693933032277,943.7887626650289,981.1863127918581,1199.6221439999997
1533058340.8760002,899.6894987541617,1442.1241183489149,927.1807467938875,1072.4598657148717,821.6248319999999
1533058340.88,1094.762651825455,1456.9878721058435,929.946860017477,1018.2682016849967,895.1255039999999
1533058340.8839998,1135.5256301954298,1489.20197550256,952.0927706005997,998.3019294359816,1217.9973119999997
1533058340.8879998,946.2723523273396,1486.7255289906511,968.6951182069387,1069.6092101099803,1178.6234879999997
1533058340.8920002,867.6622961758798,1474.333147060156,913.3445124111379,1038.234473934012,1013.2469759999998
1533058340.8960001,931.7167013324436,1464.4222863270454,902.2687229871754,1018.2682016849967,897.7489919999998
1533058340.899,1071.471225038866,1464.4222863270454,935.4847547294582,1063.90205739281,1183.8758399999997
1533058340.9029999,1036.5340848589824,1471.8567005482473,924.4146335702981,1052.4935934658567,1047.3738239999998
1533058340.907,917.1550873506591,1471.8567005482473,907.8066176991566,995.45127383109,839.9999999999998
1533058340.911,853.1006821940953,1476.8146682575402,863.526133062516,964.0765376551216,992.2483199999998
1533058340.915,847.2808069908923,1469.3802540363383,863.526133062516,895.6199125860145,834.7476479999998
1533058340.919,902.5994363557631,1439.6425971515307,929.946860017477,926.994648761983,748.1241599999998
1533058340.9229999,957.9180657206341,1412.3864614641072,976.9991261425095,984.0428099041367,850.4993279999998
1533058340.927,934.6266389340451,1419.8208756853091,982.5370208544907,961.220040542843,850.4993279999998
1533058340.931,789.0462770375314,1424.778843394602,982.5370208544907,915.5861848350296,1005.3765119999998
1533058340.935,789.0462770375314,1422.297322197218,954.8588838241891,924.1439931570914,606.3751679999998
1533058340.939,943.3624147257381,1427.255289906511,979.7652393660989,981.1863127918581,622.1214719999998
1533058340.9420002,899.6894987541617,1419.8208756853091,1018.5134975555605,981.1863127918581,847.8758399999998
1533058340.946,789.0462770375314,1432.213257615804,1010.2094896199899,944.1102654061065,679.8758399999998
1533058340.95,838.5450311991992,1447.0770113727326,982.5370208544907,924.1439931570914,729.7489919999998
1533058340.954,850.1907445924937,1442.1241183489149,982.5370208544907,915.5861848350296,761.2469759999998
1533058340.958,856.0106197956967,1449.5585325701168,974.2330129189199,895.6199125860145,1034.2510079999997
1533058340.9620001,905.5093739573647,1469.3802540363383,1004.677263172811,892.7692569811229,1294.1214719999998
1533058340.966,847.2808069908923,1464.4222863270454,1018.5134975555605,884.2114486590611,905.6248319999999
1533058340.97,818.1635420142118,1454.5114255939345,990.835360525259,889.9127598688442,763.8758399999998
1533058340.974,832.7191930091077,1447.0770113727326,1010.2094896199899,898.4705681909061,1301.9973119999997
1533058340.978,911.3352121474561,1429.7317364184198,1040.6594081386834,844.2789041610309,1257.371136
1533058340.981,931.7167013324436,1439.6425971515307,1082.1737795517345,855.6873680879843,737.6248319999999
1533058340.985,809.4277662225188,1442.1241183489149,1151.3662879950873,924.1439931570914,409.50067199999984
1533058340.9889998,692.9646693026855,1456.9878721058435,1129.226045676767,861.3886792977673,653.6248319999999
1533058340.9929998,759.9290120608508,1456.9878721058435,1112.6180298056256,764.4138151649704,763.8758399999998
1533058340.9970002,823.9834172174147,1452.0349790820258,1151.3662879950873,838.5717514438606,748.1241599999998
1533058341.0010002,864.7463955873897,1476.8146682575402,1192.8806594081384,907.0283765129678,860.9986559999998
1533058341.005,838.5450311991992,1466.8987328389542,1248.2369334687417,889.9127598688442,766.4993279999998
1533058341.0089998,745.3733610659549,1459.4693933032277,1253.7691599159205,815.754823589954,755.9999999999998
1533058341.0129998,826.8993178059047,1469.3802540363383,1239.9329255331709,795.7885513409389,740.2483199999998
1533058341.0170002,987.0353306973145,1476.8146682575402,1212.2547885028694,869.9464876198291,690.3751679999998
1533058341.0210001,1033.624147257381,1469.3802540363383,1212.2547885028694,858.5380236928758,792.7503359999998
1533058341.024,925.8908631423521,1447.0770113727326,1220.5587964384401,867.0958320149375,784.8744959999998
1533058341.0279999,899.6894987541617,1427.255289906511,1159.670295930658,1066.7585545050888,582.7476479999998
1533058341.032,858.9265203841867,1437.1661506396217,1112.6180298056256,989.7441211139198,735.0013439999998
1533058341.036,949.182289928941,1459.4693933032277,1076.6358848397533,861.3886792977673,1034.2510079999997
1533058341.04,1086.0328390206505,1476.8146682575402,1079.4019980633427,1006.8597377580434,824.2483199999998
1533058341.044,1016.1525956739949,1506.5472504568727,1126.4542641883752,1046.7922822560736,595.8758399999998
1533058341.0479999,925.8908631423521,1513.9816646780746,1131.9921589003563,1058.200746183027,698.2510079999998
1533058341.052,1036.5340848589824,1511.5052181661658,1109.8519165820362,1086.7248267541038,1039.4979839999999
1533058341.056,1042.3539600621855,1501.5892827475798,1084.9398927753239,1109.5417546080105,994.8718079999998
1533058341.06,998.681044090609,1486.7255289906511,1104.3140218700548,1038.234473934012,821.6248319999999
1533058341.063,978.2995549056216,1479.2911147694492,1154.1324012186767,1046.7922822560736,965.9973119999999
1533058341.0670002,925.8908631423521,1469.3802540363383,1145.828393283106,1081.0176740369336,1102.4993279999997
1533058341.071,908.4193115589661,1444.6005648608236,1137.5243853475354,1046.7922822560736,708.7503359999998
1533058341.075,960.8339663091241,1427.255289906511,1201.1846673437092,1043.9357851437949,498.7476479999998
1533058341.079,1074.3811626404674,1452.0349790820258,1309.1254339765237,1026.8260100070586,926.6234879999998
1533058341.083,1016.1525956739949,1479.2911147694492,1300.821426040953,1009.710393362935,934.4993279999998
1533058341.0870001,937.5365765356466,1479.2911147694492,1292.5174181053824,1021.1188572898883,816.3724799999998
1533058341.091,981.2154554941116,1461.9458398151364,1298.0553128173635,1046.7922822560736,992.2483199999998
1533058341.095,955.0081281190326,1461.9458398151364,1259.3070546279018,1026.8260100070586,774.3751679999998
1533058341.099,984.1253930957131,1464.4222863270454,1273.1432890106514,955.5187293330598,608.9986559999998
1533058341.103,1120.9699792005338,1489.20197550256,1275.9094022342408,984.0428099041367,797.9973119999999
1533058341.106,1027.7983090672894,1486.7255289906511,1264.8392810750806,1069.6092101099803,981.7489919999998
1533058341.11,911.3352121474561,1481.767561281358,1239.9329255331709,1081.0176740369336,1076.24832
1533058341.1139998,940.4524771241366,1484.244007793267,1256.5352731395099,1006.8597377580434,832.1241599999998
1533058341.1179998,1086.0328390206505,1471.8567005482473,1273.1432890106514,995.45127383109,727.1255039999999
1533058341.1220002,1135.5256301954298,1469.3802540363383,1245.46515198035,1063.90205739281,498.7476479999998
1533058341.1260002,1033.624147257381,1484.244007793267,1220.5587964384401,1106.691099003119,133.87315199999975
1533058341.13,966.6538415123271,1476.8146682575402,1190.114546184549,1069.6092101099803,677.2469759999998
1533058341.1339998,928.8008007439536,1461.9458398151364,1212.2547885028694,1038.234473934012,1018.4993279999998
1533058341.1379998,989.9452682989161,1479.2911147694492,1215.0209017264588,1069.6092101099803,816.3724799999998
1533058341.1420002,1039.444022460584,1469.3802540363383,1195.6467726317278,1038.234473934012,984.3724799999998
1533058341.1460001,998.681044090609,1456.9878721058435,1203.9507805672986,984.0428099041367,1170.7476479999998
1533058341.149,981.2154554941116,1447.0770113727326,1151.3662879950873,984.0428099041367,1296.7503359999998
1533058341.1529999,911.3352121474561,1444.6005648608236,1084.9398927753239,981.1863127918581,1091.9999999999998
1533058341.157,949.182289928941,1437.1661506396217,1084.9398927753239,1018.2682016849967,816.3724799999998
1533058341.161,1106.414328205638,1442.1241183489149,1151.3662879950873,1061.0514017879186,724.4966399999998
1533058341.165,1062.735449247173,1449.5585325701168,1159.670295930658,1041.0851295389034,863.6221439999998
1533058341.169,998.681044090609,1459.4693933032277,1137.5243853475354,1029.67666561195,908.2483199999998
1533058341.1729999,1001.5909816922104,1461.9458398151364,1098.7761271580735,1058.200746183027,430.4993279999998
1533058341.177,1019.0625332755965,1459.4693933032277,1076.6358848397533,1089.5754823589955,763.8758399999998
1533058341.181,1135.5256301954298,1474.333147060156,1104.3140218700548,1123.8008741398555,994.8718079999998
1533058341.185,1080.2070008305589,1484.244007793267,1109.8519165820362,1063.90205739281,1018.4993279999998
1533058341.188,1004.5068822807006,1496.636389723762,1048.9577478094516,1021.1188572898883,845.2469759999998
1533058341.1920002,1019.0625332755965,1504.070803944964,1048.9577478094516,1043.9357851437949,564.3724799999998
1533058341.196,940.4524771241366,1504.070803944964,999.1393684608297,935.5524570840447,669.3765119999998
1533058341.2,1077.2970632289573,1518.9345577018923,963.1628917597599,1038.234473934012,976.4966399999998
1533058341.204,1080.2070008305589,1528.8454184350032,979.7652393660989,1126.657371252134,1183.8758399999997
1533058341.208,893.8636605640702,1509.0236969687817,938.2508679530476,972.6285044697963,1026.3751679999998
1533058341.2120001,885.1278847723772,1496.636389723762,949.3209891122078,901.3212237957976,889.8731519999998
1533058341.216,882.2179471707757,1506.5472504568727,949.3209891122078,869.9464876198291,939.7463039999998
1533058341.22,989.9452682989161,1536.2798326562051,943.7887626650289,887.0621042639527,708.7503359999998
1533058341.224,1010.3267574839035,1528.8454184350032,949.3209891122078,895.6199125860145,755.9999999999998
1533058341.228,888.0378223739787,1506.5472504568727,949.3209891122078,855.6873680879843,853.1228159999998
1533058341.231,829.8092554075063,1511.5052181661658,952.0927706005997,810.0476708727838,737.6248319999999
1533058341.235,893.8636605640702,1511.5052181661658,943.7887626650289,810.0476708727838,664.1241599999998
1533058341.2389998,1027.7983090672894,1489.20197550256,957.6249970477785,812.9041679850625,937.1228159999998
1533058341.2429998,987.0353306973145,1499.1128362356708,976.9991261425095,872.8029847321078,868.8744959999998
1533058341.2470002,920.0709879391492,1486.7255289906511,996.3732552372403,892.7692569811229,748.1241599999998
1533058341.2510002,873.4821713790827,1449.5585325701168,1032.3554002031126,852.8367124830927,1002.7476479999998
1533058341.255,835.6291306107092,1459.4693933032277,1032.3554002031126,807.1970152678922,724.4966399999998
1533058341.2589998,893.8636605640702,1459.4693933032277,1001.9111499492216,838.5717514438606,490.8718079999998
1533058341.2629998,885.1278847723772,1442.1241183489149,993.6071420136509,912.735529230138,713.9973119999999
1533058341.2670002,888.0378223739787,1434.689704127713,996.3732552372403,969.7778488649047,1005.3765119999998
1533058341.2710001,867.6622961758798,1444.6005648608236,960.391110271368,918.4368404399212,1044.7503359999998
1533058341.274,809.4277662225188,1454.5114255939345,946.5548758886184,852.8367124830927,992.2483199999998
1533058341.2779999,949.182289928941,1449.5585325701168,954.8588838241891,821.4619763071242,837.3765119999998
1533058341.282,995.7711064890075,1454.5114255939345,965.9290049833493,847.1295597659224,782.2510079999998
1533058341.286,896.7735981656716,1454.5114255939345,990.835360525259,924.1439931570914,800.6261759999998
1533058341.29,864.7463955873897,1452.0349790820258,1001.9111499492216,921.2874960448127,918.7476479999998
1533058341.294,879.3080095691741,1464.4222863270454,999.1393684608297,915.5861848350296,923.9999999999998
1533058341.2979999,972.4796797024186,1459.4693933032277,999.1393684608297,978.3356571869665,1055.2496639999997
1533058341.302,1030.708246668891,1449.5585325701168,1046.1916345858622,989.7441211139198,900.3724799999998
1533058341.306,992.861168887406,1461.9458398151364,1068.3318769041825,912.735529230138,797.9973119999999
1533058341.31,908.4193115589661,1466.8987328389542,1015.7473843319711,867.0958320149375,787.4979839999999
1533058341.313,899.6894987541617,1479.2911147694492,1048.9577478094516,881.3549515467824,879.3738239999998
1533058341.3170002,1010.3267574839035,1499.1128362356708,1076.6358848397533,986.8934655090283,1076.24832
1533058341.321,1059.8255116455714,1491.6784220144689,1073.8697716161637,998.3019294359816,1131.3738239999998
1533058341.325,981.2154554941116,1471.8567005482473,1104.3140218700548,961.220040542843,1181.246976
1533058341.329,972.4796797024186,1456.9878721058435,1101.5479086464654,961.220040542843,727.1255039999999
1533058341.333,972.4796797024186,1452.0349790820258,1118.1502562528044,1018.2682016849967,645.7489919999998
1533058341.3370001,1001.5909816922104,1432.213257615804,1129.226045676767,1058.200746183027,1063.1255039999999
1533058341.341,1030.708246668891,1419.8208756853091,1145.828393283106,915.5861848350296,1026.3751679999998
1533058341.345,934.6266389340451,1409.9100149521983,1140.2961668359271,949.8115766158896,664.1241599999998
1533058341.349,905.5093739573647,1414.8679826614914,1107.0801350936442,1018.2682016849967,645.7489919999998
1533058341.353,922.9809255407506,1424.778843394602,1065.5657636805931,907.0283765129678,931.8758399999998
1533058341.356,955.0081281190326,1429.7317364184198,1021.2852790439524,918.4368404399212,889.8731519999998
1533058341.36,1042.3539600621855,1439.6425971515307,1090.4777874873052,1046.7922822560736,824.2483199999998
1533058341.3639998,1021.972470877198,1429.7317364184198,1151.3662879950873,1149.4742991060407,776.9986559999998
1533058341.3679998,984.1253930957131,1419.8208756853091,1137.5243853475354,1078.1670184320421,826.8718079999998
1533058341.3720002,984.1253930957131,1432.213257615804,1123.6881509647858,949.8115766158896,874.1214719999998
1533058341.3760002,1051.0897358538784,1439.6425971515307,1112.6180298056256,1055.3500905781355,847.8758399999998
1533058341.38,1193.7601601487906,1464.4222863270454,1107.0801350936442,1072.4598657148717,1081.500672
1533058341.3839998,1077.2970632289573,1484.244007793267,1126.4542641883752,1032.5273212168415,897.7489919999998
1533058341.3879998,992.861168887406,1474.333147060156,1129.226045676767,1032.5273212168415,629.9973119999999
1533058341.3920002,981.2154554941116,1476.8146682575402,1118.1502562528044,1015.4175460801051,808.4966399999998
1533058341.3960001,1001.5909816922104,1484.244007793267,1137.5243853475354,998.3019294359816,716.6261759999998
1533058341.399,1059.8255116455714,1494.159943211853,1179.0444250253888,1086.7248267541038,556.4966399999998
1533058341.4029999,1048.179798252277,1491.6784220144689,1162.4364091542475,1112.3924102129022,661.5006719999998
1533058341.407,984.1253930957131,1484.244007793267,1096.010013934484,1015.4175460801051,958.1214719999998
1533058341.411,943.3624147257381,1491.6784220144689,1060.0278689686118,1041.0851295389034,913.5006719999998
1533058341.415,922.9809255407506,1506.5472504568727,1046.1916345858622,955.5187293330598,685.1228159999998
1533058341.419,969.5637791139285,1513.9816646780746,1035.121513426702,946.960921010998,782.2510079999998
1533058341.4229999,981.2154554941116,1494.159943211853,1032.3554002031126,1029.67666561195,685.1228159999998
1533058341.427,1004.5068822807006,1471.8567005482473,1012.9812711083817,1075.3163628271504,593.2469759999998
1533058341.431,1068.5612874372644,1481.767561281358,985.3031340780801,1061.0514017879186,564.3724799999998
1533058341.435,1004.5068822807006,1479.2911147694492,1048.9577478094516,998.3019294359816,850.4993279999998
1533058341.438,946.2723523273396,1476.8146682575402,1093.2439007108946,938.4031126889363,708.7503359999998
1533058341.4420002,963.7439039107255,1499.1128362356708,1112.6180298056256,926.994648761983,254.62348799999987
1533058341.446,960.8339663091241,1491.6784220144689,1154.1324012186767,946.960921010998,737.6248319999999
1533058341.45,952.0981905174311,1471.8567005482473,1129.226045676767,898.4705681909061,1018.4993279999998
1533058341.454,943.3624147257381,1484.244007793267,1120.9220377411962,895.6199125860145,748.1241599999998
1533058341.458,1010.3267574839035,1521.4160788992765,1145.828393283106,966.9271932600132,903.0013439999998
1533058341.4620001,1068.5612874372644,1531.3269396323874,1181.8105382489782,1018.2682016849967,1336.1241599999998
1533058341.466,1010.3267574839035,1523.8925254111855,1201.1846673437092,952.6622322207811,1089.3711359999998
1533058341.47,957.9180657206341,1536.2798326562051,1209.48867527928,858.5380236928758,811.1255039999999
1533058341.474,873.4821713790827,1521.4160788992765,1253.7691599159205,892.7692569811229,1097.246976
1533058341.478,925.8908631423521,1521.4160788992765,1234.3950308211897,881.3549515467824,908.2483199999998
1533058341.481,995.7711064890075,1516.4581111899836,1264.8392810750806,944.1102654061065,614.2510079999998
1533058341.485,920.0709879391492,1499.1128362356708,1298.0553128173635,992.5947767188114,766.4993279999998
1533058341.4889998,893.8636605640702,1513.9816646780746,1209.48867527928,932.695959971766,944.9986559999998
1533058341.4929998,873.4821713790827,1518.9345577018923,1179.0444250253888,895.6199125860145,771.7463039999998
1533058341.4970002,937.5365765356466,1494.159943211853,1176.272643536997,921.2874960448127,769.1228159999998
1533058341.5010002,1051.0897358538784,1491.6784220144689,1137.5243853475354,955.5187293330598,1015.8758399999998
1533058341.505,987.0353306973145,1506.5472504568727,1120.9220377411962,892.7692569811229,939.7463039999998
1533058341.5089998,978.2995549056216,1504.070803944964,1145.828393283106,892.7692569811229,1231.1255039999999
1533058341.5129998,992.861168887406,1499.1128362356708,1154.1324012186767,909.8790321178593,1065.7489919999998
1533058341.5170002,940.4524771241366,1491.6784220144689,1162.4364091542475,898.4705681909061,763.8758399999998
1533058341.52,1013.2426580723935,1501.5892827475798,1201.1846673437092,961.220040542843,824.2483199999998
1533058341.524,1001.5909816922104,1533.8033861442962,1237.1611440447791,989.7441211139198,1005.3765119999998
1533058341.5279999,937.5365765356466,1543.714246877407,1198.4185541201198,986.8934655090283,1002.7476479999998
1533058341.532,972.4796797024186,1566.0174895410128,1159.670295930658,975.4850015820749,742.8718079999998
1533058341.536,1033.624147257381,1563.5359683436286,1143.0622800595165,946.960921010998,939.7463039999998
1533058341.54,1068.5612874372644,1538.7613538535893,1167.9686356014263,1006.8597377580434,813.7489919999998
1533058341.544,1083.1169384321604,1551.148661098609,1201.1846673437092,1072.4598657148717,719.2496639999998
1533058341.5479999,1056.9155740439699,1556.106628807902,1184.5766514725678,1058.200746183027,934.4993279999998
1533058341.552,1001.5909816922104,1538.7613538535893,1184.5766514725678,1018.2682016849967,1028.9986559999998
1533058341.556,1013.2426580723935,1543.714246877407,1162.4364091542475,1063.90205739281,839.9999999999998
1533058341.56,1147.1773065756129,1531.3269396323874,1165.2025223778369,1103.8346018908403,855.7463039999998
1533058341.563,1118.0600415989322,1504.070803944964,1259.3070546279018,1038.234473934012,926.6234879999998
1533058341.5670002,1010.3267574839035,1509.0236969687817,1248.2369334687417,1026.8260100070586,535.4979839999999
1533058341.571,1016.1525956739949,1504.070803944964,1170.7404170898183,1018.2682016849967,514.4993279999998
1533058341.575,969.5637791139285,1496.636389723762,1162.4364091542475,1032.5273212168415,740.2483199999998
1533058341.579,1036.5340848589824,1509.0236969687817,1167.9686356014263,1009.710393362935,719.2496639999998
1533058341.583,1074.3811626404674,1504.070803944964,1242.6990387567603,1041.0851295389034,918.7476479999998
1533058341.5870001,1010.3267574839035,1509.0236969687817,1223.3249096620298,1075.3163628271504,939.7463039999998
1533058341.591,1010.3267574839035,1486.7255289906511,1184.5766514725678,1043.9357851437949,776.9986559999998
1533058341.595,1004.5068822807006,1474.333147060156,1217.7926832148507,1029.67666561195,832.1241599999998
1533058341.599,1062.735449247173,1476.8146682575402,1215.0209017264588,1023.9753544021669,881.9973119999999
1533058341.603,1138.44153078392,1489.20197550256,1203.9507805672986,1046.7922822560736,855.7463039999998
1533058341.606,1045.2698606506754,1494.159943211853,1167.9686356014263,1072.4598657148717,824.2483199999998
1533058341.61,969.5637791139285,1486.7255289906511,1137.5243853475354,1069.6092101099803,908.2483199999998
1533058341.6139998,989.9452682989161,1496.636389723762,1084.9398927753239,1069.6092101099803,1010.6234879999998
1533058341.6179998,1045.2698606506754,1494.159943211853,1001.9111499492216,1140.916490783979,853.1228159999998
1533058341.6220002,1100.5884900155463,1496.636389723762,990.835360525259,1081.0176740369336,832.1241599999998
1533058341.6260002,1021.972470877198,1513.9816646780746,1018.5134975555605,1012.5610489678265,892.4966399999998
1533058341.63,972.4796797024186,1533.8033861442962,988.0692473016695,1029.67666561195,855.7463039999998
1533058341.6339998,984.1253930957131,1533.8033861442962,918.8767388583168,995.45127383109,805.8731519999998
1533058341.6379998,1019.0625332755965,1504.070803944964,935.4847547294582,978.3356571869665,643.1255039999999
1533058341.6420002,1129.7057549922267,1526.3689719230943,1024.0513922675418,1006.8597377580434,687.7463039999998
1533058341.645,1106.414328205638,1553.625107610518,1032.3554002031126,1083.868329641825,992.2483199999998
1533058341.649,1021.972470877198,1541.2378003654983,1032.3554002031126,1083.868329641825,855.7463039999998
1533058341.6529999,943.3624147257381,1541.2378003654983,1073.8697716161637,984.0428099041367,753.3711359999999
1533058341.657,963.7439039107255,1546.190693389316,1076.6358848397533,949.8115766158896,776.9986559999998
1533058341.661,1097.6785524139448,1551.148661098609,1096.010013934484,989.7441211139198,763.8758399999998
1533058341.665,1048.179798252277,1551.148661098609,1062.7996504570037,986.8934655090283,847.8758399999998
1533058341.669,1007.416819882302,1543.714246877407,974.2330129189199,978.3356571869665,779.6221439999998
1533058341.6729999,1033.624147257381,1523.8925254111855,993.6071420136509,981.1863127918581,855.7463039999998
1533058341.677,1030.708246668891,1516.4581111899836,1001.9111499492216,966.9271932600132,774.3751679999998
1533058341.681,1071.471225038866,1533.8033861442962,1054.495642521433,1026.8260100070586,679.8758399999998
1533058341.685,1109.3242658072393,1536.2798326562051,1131.9921589003563,1004.0090821531518,850.4993279999998
1533058341.688,1024.888371465688,1509.0236969687817,1046.1916345858622,929.8453043668745,700.8744959999998
1533058341.6920002,882.2179471707757,1486.7255289906511,976.9991261425095,944.1102654061065,551.2496639999998
1533058341.696,917.1550873506591,1476.8146682575402,990.835360525259,955.5187293330598,866.2510079999998
1533058341.7,1042.3539600621855,1491.6784220144689,988.0692473016695,1023.9753544021669,1073.6248319999997
1533058341.704,1033.624147257381,1511.5052181661658,971.4668996953305,1072.4598657148717,1091.9999999999998
1533058341.708,992.861168887406,1513.9816646780746,927.1807467938875,961.220040542843,1202.2510079999997
1533058341.7120001,934.6266389340451,1504.070803944964,899.502609763586,929.8453043668745,1073.6248319999997
1533058341.716,888.0378223739787,1484.244007793267,874.5962542216762,955.5187293330598,1175.9999999999998
1533058341.72,1054.0056364423685,1484.244007793267,896.7364965399964,989.7441211139198,1139.2496639999997
1533058341.724,1109.3242658072393,1474.333147060156,941.016981176637,1058.200746183027,774.3751679999998
1533058341.728,1021.972470877198,1432.213257615804,974.2330129189199,1152.3249547109324,884.6261759999998
1533058341.731,1021.972470877198,1452.0349790820258,957.6249970477785,1243.5985076339462,1215.3738239999998
1533058341.735,943.3624147257381,1528.8454184350032,877.3623674452656,981.1863127918581,1110.3751679999998
1533058341.7389998,955.0081281190326,1513.9816646780746,877.3623674452656,852.8367124830927,987.0013439999998
1533058341.7429998,1033.624147257381,1481.767561281358,927.1807467938875,949.8115766158896,732.3724799999998
1533058341.7470002,1048.179798252277,1513.9816646780746,896.7364965399964,952.6622322207811,548.6261759999998
1533058341.7510002,1027.7983090672894,1518.9345577018923,846.9181171913746,932.695959971766,692.9986559999998
1533058341.755,989.9452682989161,1513.9816646780746,849.684230414964,969.7778488649047,553.8731519999998
1533058341.7589998,989.9452682989161,1528.8454184350032,888.4324886044258,992.5947767188114,706.1214719999998
1533058341.7629998,1045.2698606506754,1556.106628807902,891.1986018280152,929.8453043668745,863.6221439999998
1533058341.7670002,1080.2070008305589,1561.0595218317198,905.0405044755672,961.220040542843,829.5006719999998
1533058341.77,1019.0625332755965,1556.106628807902,891.1986018280152,964.0765376551216,682.4993279999998
1533058341.774,943.3624147257381,1553.625107610518,896.7364965399964,918.4368404399212,908.2483199999998
1533058341.7779999,984.1253930957131,1528.8454184350032,954.8588838241891,992.5947767188114,1149.7489919999998
1533058341.782,1030.708246668891,1541.2378003654983,976.9991261425095,1075.3163628271504,879.3738239999998
1533058341.786,1167.5587957606003,1561.0595218317198,927.1807467938875,1023.9753544021669,834.7476479999998
1533058341.79,1007.416819882302,1556.106628807902,891.1986018280152,975.4850015820749,871.4979839999999
1533058341.794,888.0378223739787,1566.0174895410128,932.7186415058688,1038.234473934012,887.2496639999998
1533058341.7979999,1045.2698606506754,1558.5830753198109,929.946860017477,1001.1525850408732,1042.1214719999998
1533058341.802,1074.3811626404674,1548.6722145867002,905.0405044755672,964.0765376551216,923.9999999999998
1533058341.806,1024.888371465688,1531.3269396323874,927.1807467938875,1026.8260100070586,1031.6221439999997
1533058341.81,1016.1525956739949,1523.8925254111855,938.2508679530476,981.1863127918581,761.2469759999998
1533058341.813,984.1253930957131,1523.8925254111855,952.0927706005997,949.8115766158896,545.9973119999999
1533058341.8170002,981.2154554941116,1509.0236969687817,952.0927706005997,998.3019294359816,965.9973119999999
1533058341.821,1106.414328205638,1513.9816646780746,913.3445124111379,1004.0090821531518,1110.3751679999998
1533058341.825,1077.2970632289573,1504.070803944964,863.526133062516,1061.0514017879186,997.5006719999998
1533058341.829,864.7463955873897,1501.5892827475798,907.8066176991566,1041.0851295389034,839.9999999999998
1533058341.833,806.5178286209173,1506.5472504568727,938.2508679530476,901.3212237957976,653.6248319999999
1533058341.8370001,911.3352121474561,1506.5472504568727,935.4847547294582,935.5524570840447,632.6261759999998
1533058341.841,1010.3267574839035,1491.6784220144689,1029.5836187147208,955.5187293330598,921.3711359999999
1533058341.845,1030.708246668891,1471.8567005482473,1084.9398927753239,935.5524570840447,1094.6234879999997
1533058341.849,1024.888371465688,1471.8567005482473,1032.3554002031126,961.220040542843,1000.1241599999998
1533058341.853,972.4796797024186,1464.4222863270454,993.6071420136509,986.8934655090283,821.6248319999999
1533058341.856,969.5637791139285,1444.6005648608236,990.835360525259,1032.5273212168415,735.0013439999998
1533058341.86,1068.5612874372644,1439.6425971515307,1010.2094896199899,1058.200746183027,761.2469759999998
1533058341.8639998,1019.0625332755965,1449.5585325701168,1004.677263172811,1063.90205739281,821.6248319999999
1533058341.8679998,890.9537229624686,1456.9878721058435,938.2508679530476,1069.6092101099803,866.2510079999998
1533058341.8720002,850.1907445924937,1442.1241183489149,907.8066176991566,1069.6092101099803,1039.4979839999999
1533058341.8760002,952.0981905174311,1456.9878721058435,896.7364965399964,1052.4935934658567,984.3724799999998
1533058341.88,1100.5884900155463,1484.244007793267,918.8767388583168,1043.9357851437949,1021.1228159999998
1533058341.8839998,1091.8527142238534,1484.244007793267,976.9991261425095,1061.0514017879186,1189.1228159999998
1533058341.8879998,1045.2698606506754,1496.636389723762,988.0692473016695,1092.426137963887,1063.1255039999999
1533058341.8920002,957.9180657206341,1518.9345577018923,999.1393684608297,1006.8597377580434,979.1255039999999
1533058341.895,853.1006821940953,1494.159943211853,1029.5836187147208,869.9464876198291,1034.2510079999997
1533058341.899,896.7735981656716,1471.8567005482473,1084.9398927753239,849.980215370814,903.0013439999998
1533058341.9029999,955.0081281190326,1496.636389723762,1145.828393283106,881.3549515467824,679.8758399999998
1533058341.907,914.2451497490576,1523.8925254111855,1173.5065303134077,944.1102654061065,735.0013439999998
1533058341.911,940.4524771241366,1541.2378003654983,1131.9921589003563,1032.5273212168415,1044.7503359999998
1533058341.915,1019.0625332755965,1538.7613538535893,1051.7295292978436,1035.3838183291202,981.7489919999998
1533058341.919,1056.9155740439699,1526.3689719230943,1037.8876266502914,972.6285044697963,816.3724799999998
1533058341.9229999,1033.624147257381,1516.4581111899836,1068.3318769041825,1006.8597377580434,695.6221439999998
1533058341.927,1016.1525956739949,1523.8925254111855,1071.1036583925743,1038.234473934012,881.9973119999999
1533058341.931,1004.5068822807006,1516.4581111899836,1026.8175054911312,1006.8597377580434,1049.9973119999997
1533058341.935,955.0081281190326,1494.159943211853,1001.9111499492216,961.220040542843,629.9973119999999
1533058341.938,972.4796797024186,1486.7255289906511,976.9991261425095,952.6622322207811,595.8758399999998
1533058341.9420002,1027.7983090672894,1484.244007793267,965.9290049833493,998.3019294359816,590.6234879999998
1533058341.946,1021.972470877198,1496.636389723762,1018.5134975555605,1041.0851295389034,637.8731519999998
1533058341.95,992.861168887406,1504.070803944964,1010.2094896199899,1041.0851295389034,897.7489919999998
1533058341.954,966.6538415123271,1504.070803944964,990.835360525259,1009.710393362935,808.4966399999998
1533058341.958,1097.6785524139448,1526.3689719230943,990.835360525259,981.1863127918581,1120.874496
1533058341.9620001,1222.8774251254713,1531.3269396323874,1037.8876266502914,1021.1188572898883,1010.6234879999998
1533058341.966,1059.8255116455714,1499.1128362356708,1076.6358848397533,1049.6429378609653,577.5006719999998
1533058341.97,920.0709879391492,1479.2911147694492,1068.3318769041825,1052.4935934658567,637.8731519999998
1533058341.974,949.182289928941,1484.244007793267,1043.4255213622728,1041.0851295389034,582.7476479999998
1533058341.9770002,1024.888371465688,1511.5052181661658,1018.5134975555605,1035.3838183291202,795.3738239999998
1533058341.981,1123.8799168021353,1521.4160788992765,1035.121513426702,1023.9753544021669,1060.4966399999998
1533058341.985,1158.8230199689074,1511.5052181661658,1068.3318769041825,1083.868329641825,1065.7489919999998
1533058341.9889998,1039.444022460584,1506.5472504568727,1037.8876266502914,1109.5417546080105,824.2483199999998
1533058341.9929998,946.2723523273396,1506.5472504568727,1001.9111499492216,1058.200746183027,963.3738239999998
1533058341.9970002,984.1253930957131,1504.070803944964,1004.677263172811,1012.5610489678265,1044.7503359999998
1533058342.0010002,1126.7958173906254,1499.1128362356708,1015.7473843319711,1081.0176740369336,884.6261759999998
1533058342.005,1077.2970632289573,1494.159943211853,1032.3554002031126,1078.1670184320421,1018.4993279999998
1533058342.0089998,960.8339663091241,1499.1128362356708,1004.677263172811,952.6622322207811,1102.4993279999997
1533058342.0129998,978.2995549056216,1494.159943211853,968.6951182069387,941.2537682938279,855.7463039999998
1533058342.0170002,931.7167013324436,1469.3802540363383,971.4668996953305,981.1863127918581,905.6248319999999
1533058342.02,992.861168887406,1489.20197550256,999.1393684608297,995.45127383109,784.8744959999998
1533058342.024,1030.708246668891,1499.1128362356708,1026.8175054911312,1006.8597377580434,944.9986559999998
1533058342.0279999,969.5637791139285,1491.6784220144689,999.1393684608297,1018.2682016849967,1015.8758399999998
1533058342.032,981.2154554941116,1496.636389723762,965.9290049833493,1006.8597377580434,669.3765119999998
1533058342.036,1019.0625332755965,1499.1128362356708,949.3209891122078,1006.8597377580434,834.7476479999998
1533058342.04,1065.6513498356628,1504.070803944964,946.5548758886184,1001.1525850408732,1228.4966399999998
1533058342.044,1051.0897358538784,1489.20197550256,963.1628917597599,981.1863127918581,976.4966399999998
1533058342.0479999,952.0981905174311,1456.9878721058435,979.7652393660989,1009.710393362935,947.6221439999998
1533058342.052,925.8908631423521,1452.0349790820258,974.2330129189199,992.5947767188114,1128.7503359999998
1533058342.056,943.3624147257381,1464.4222863270454,960.391110271368,972.6285044697963,892.4966399999998
1533058342.06,1024.888371465688,1479.2911147694492,999.1393684608297,1004.0090821531518,984.3724799999998
1533058342.063,1068.5612874372644,1466.8987328389542,1001.9111499492216,1026.8260100070586,918.7476479999998
1533058342.0670002,1007.416819882302,1452.0349790820258,902.2687229871754,1018.2682016849967,1010.6234879999998
1533058342.071,975.38961730402,1474.333147060156,877.3623674452656,975.4850015820749,845.2469759999998
1533058342.075,940.4524771241366,1489.20197550256,905.0405044755672,966.9271932600132,1007.9999999999998
1533058342.079,987.0353306973145,1486.7255289906511,860.7543515741241,978.3356571869665,1362.3751679999998
1533058342.083,1016.1525956739949,1484.244007793267,877.3623674452656,995.45127383109,971.2496639999998
1533058342.0870001,946.2723523273396,1491.6784220144689,863.526133062516,1026.8260100070586,606.3751679999998
1533058342.091,917.1550873506591,1521.4160788992765,824.7778748730543,1038.234473934012,711.3738239999998
1533058342.095,911.3352121474561,1538.7613538535893,835.8479960322144,1009.710393362935,850.4993279999998
1533058342.099,963.7439039107255,1528.8454184350032,863.526133062516,1023.9753544021669,671.9999999999998
1533058342.1020002,1059.8255116455714,1523.8925254111855,916.1106256347274,1072.4598657148717,698.2510079999998
1533058342.106,1051.0897358538784,1533.8033861442962,869.0583595096949,1083.868329641825,624.7503359999998
1533058342.11,937.5365765356466,1533.8033861442962,830.3101013202331,1069.6092101099803,640.4966399999998
1533058342.1139998,864.7463955873897,1526.3689719230943,816.4738669374835,1026.8260100070586,1086.7476479999998
1533058342.1179998,946.2723523273396,1538.7613538535893,802.6319642899315,998.3019294359816,987.0013439999998
1533058342.1220002,1030.708246668891,1531.3269396323874,838.6141092558039,1066.7585545050888,900.3724799999998
1533058342.1260002,981.2154554941116,1538.7613538535893,835.8479960322144,1035.3838183291202,881.9973119999999
1533058342.13,934.6266389340451,1536.2798326562051,838.6141092558039,966.9271932600132,931.8758399999998
1533058342.1339998,911.3352121474561,1523.8925254111855,860.7543515741241,1015.4175460801051,871.4979839999999
1533058342.1379998,972.4796797024186,1558.5830753198109,899.502609763586,995.45127383109,685.1228159999998
1533058342.1420002,1068.5612874372644,1556.106628807902,988.0692473016695,978.3356571869665,816.3724799999998
1533058342.145,1013.2426580723935,1546.190693389316,1018.5134975555605,1012.5610489678265,931.8758399999998
1533058342.149,946.2723523273396,1548.6722145867002,1007.4433763964005,984.0428099041367,1178.6234879999997
1533058342.1529999,917.1550873506591,1536.2798326562051,1037.8876266502914,966.9271932600132,1178.6234879999997
1533058342.157,966.6538415123271,1523.8925254111855,1048.9577478094516,998.3019294359816,1034.2510079999997
1533058342.161,1094.762651825455,1523.8925254111855,1079.4019980633427,1018.2682016849967,981.7489919999998
1533058342.165,1080.2070008305589,1526.3689719230943,1076.6358848397533,1023.9753544021669,845.2469759999998
1533058342.169,975.38961730402,1513.9816646780746,1043.4255213622728,1015.4175460801051,708.7503359999998
1533058342.1729999,975.38961730402,1509.0236969687817,1060.0278689686118,978.3356571869665,706.1214719999998
1533058342.177,1016.1525956739949,1521.4160788992765,1051.7295292978436,941.2537682938279,839.9999999999998
1533058342.181,1045.2698606506754,1518.9345577018923,1037.8876266502914,935.5524570840447,858.3751679999998
1533058342.185,1068.5612874372644,1521.4160788992765,1076.6358848397533,946.960921010998,850.4993279999998
1533058342.188,1019.0625332755965,1504.070803944964,1082.1737795517345,946.960921010998,950.2510079999998
1533058342.1920002,957.9180657206341,1486.7255289906511,1046.1916345858622,938.4031126889363,748.1241599999998
1533058342.196,975.38961730402,1491.6784220144689,1010.2094896199899,946.960921010998,653.6248319999999
1533058342.2,1068.5612874372644,1484.244007793267,1004.677263172811,975.4850015820749,766.4993279999998
1533058342.204,1106.414328205638,1474.333147060156,1048.9577478094516,978.3356571869665,779.6221439999998
1533058342.208,1039.444022460584,1459.4693933032277,990.835360525259,961.220040542843,960.7503359999998
1533058342.2120001,1036.5340848589824,1479.2911147694492,929.946860017477,966.9271932600132,874.1214719999998
1533058342.216,1019.0625332755965,1486.7255289906511,932.7186415058688,955.5187293330598,735.0013439999998
1533058342.22,1033.624147257381,1479.2911147694492,910.572730922746,938.4031126889363,692.9986559999998
1533058342.224,1097.6785524139448,1489.20197550256,888.4324886044258,958.3693849379514,713.9973119999999
1533058342.2270002,1042.3539600621855,1474.333147060156,863.526133062516,966.9271932600132,700.8744959999998
1533058342.231,969.5637791139285,1466.8987328389542,877.3623674452656,952.6622322207811,737.6248319999999
1533058342.235,972.4796797024186,1474.333147060156,813.7020854490917,955.5187293330598,958.1214719999998
1533058342.2389998,1065.6513498356628,1499.1128362356708,799.8658510663421,938.4031126889363,997.5006719999998
1533058342.2429998,1083.1169384321604,1531.3269396323874,860.7543515741241,946.960921010998,774.3751679999998
1533058342.2470002,1033.624147257381,1536.2798326562051,855.2221251269453,981.1863127918581,819.0013439999998
1533058342.2510002,960.8339663091241,1511.5052181661658,869.0583595096949,946.960921010998,992.2483199999998
1533058342.255,911.3352121474561,1496.636389723762,874.5962542216762,935.5524570840447,1157.6248319999997
1533058342.2589998,972.4796797024186,1496.636389723762,863.526133062516,949.8115766158896,1060.4966399999998
1533058342.2629998,1036.5340848589824,1506.5472504568727,932.7186415058688,961.220040542843,1270.4993279999997
1533058342.2670002,987.0353306973145,1504.070803944964,974.2330129189199,975.4850015820749,1071.0013439999998
1533058342.27,934.6266389340451,1504.070803944964,932.7186415058688,978.3356571869665,572.2483199999998
1533058342.274,914.2451497490576,1489.20197550256,929.946860017477,975.4850015820749,803.2496639999998
1533058342.2779999,995.7711064890075,1474.333147060156,941.016981176637,972.6285044697963,845.2469759999998
1533058342.282,1056.9155740439699,1479.2911147694492,957.6249970477785,1004.0090821531518,766.4993279999998
1533058342.286,937.5365765356466,1484.244007793267,946.5548758886184,978.3356571869665,937.1228159999998
1533058342.29,856.0106197956967,1506.5472504568727,921.6428520819062,969.7778488649047,981.7489919999998
1533058342.294,853.1006821940953,1509.0236969687817,916.1106256347274,998.3019294359816,1010.6234879999998
1533058342.2979999,896.7735981656716,1511.5052181661658,885.6663753808364,978.3356571869665,1084.1241599999998
1533058342.302,992.861168887406,1526.3689719230943,891.1986018280152,978.3356571869665,858.3751679999998
1533058342.306,1013.2426580723935,1511.5052181661658,905.0405044755672,1006.8597377580434,1071.0013439999998
1533058342.309,943.3624147257381,1491.6784220144689,871.8244727332843,978.3356571869665,1112.9986559999998
1533058342.313,879.3080095691741,1491.6784220144689,860.7543515741241,946.960921010998,803.2496639999998
1533058342.3170002,940.4524771241366,1509.0236969687817,866.2922462861054,932.695959971766,732.3724799999998
1533058342.321,1051.0897358538784,1513.9816646780746,910.572730922746,955.5187293330598,666.7476479999998
1533058342.325,1021.972470877198,1518.9345577018923,946.5548758886184,1021.1188572898883,624.7503359999998
1533058342.329,972.4796797024186,1511.5052181661658,913.3445124111379,1032.5273212168415,826.8718079999998
1533058342.333,984.1253930957131,1521.4160788992765,877.3623674452656,1021.1188572898883,1039.4979839999999
1533058342.3370001,1013.2426580723935,1523.8925254111855,857.9882383505347,966.9271932600132,963.3738239999998
1533058342.341,1100.5884900155463,1504.070803944964,913.3445124111379,952.6622322207811,727.1255039999999
1533058342.345,1132.6156925938283,1509.0236969687817,929.946860017477,998.3019294359816,931.8758399999998
1533058342.349,1059.8255116455714,1504.070803944964,882.8945938924445,1009.710393362935,979.1255039999999
1533058342.3520002,1042.3539600621855,1506.5472504568727,888.4324886044258,1032.5273212168415,771.7463039999998
1533058342.356,1056.9155740439699,1511.5052181661658,907.8066176991566,1029.67666561195,937.1228159999998
1533058342.36,1123.8799168021353,1511.5052181661658,941.016981176637,1061.0514017879186,981.7489919999998
1533058342.3639998,1144.2614059871228,1509.0236969687817,993.6071420136509,1061.0514017879186,713.9973119999999
1533058342.3679998,1010.3267574839035,1499.1128362356708,1029.5836187147208,1043.9357851437949,577.5006719999998
1533058342.3720002,934.6266389340451,1509.0236969687817,1007.4433763964005,1032.5273212168415,876.7503359999998
1533058342.3760002,972.4796797024186,1536.2798326562051,960.391110271368,1001.1525850408732,1039.4979839999999
1533058342.38,1065.6513498356628,1543.714246877407,946.5548758886184,1004.0090821531518,787.4979839999999
1533058342.3839998,1100.5884900155463,1518.9345577018923,999.1393684608297,1004.0090821531518,687.7463039999998
1533058342.3879998,1004.5068822807006,1511.5052181661658,1010.2094896199899,1006.8597377580434,1091.9999999999998
1533058342.3920002,925.8908631423521,1531.3269396323874,963.1628917597599,986.8934655090283,984.3724799999998
1533058342.395,882.2179471707757,1528.8454184350032,921.6428520819062,969.7778488649047,703.4979839999999
1533058342.399,928.8008007439536,1536.2798326562051,905.0405044755672,981.1863127918581,732.3724799999998
1533058342.4029999,989.9452682989161,1546.190693389316,988.0692473016695,998.3019294359816,1013.2469759999998
1533058342.407,955.0081281190326,1538.7613538535893,1037.8876266502914,1018.2682016849967,1007.9999999999998
1533058342.411,911.3352121474561,1528.8454184350032,971.4668996953305,1012.5610489678265,905.6248319999999
1533058342.415,888.0378223739787,1509.0236969687817,921.6428520819062,955.5187293330598,845.2469759999998
1533058342.419,920.0709879391492,1513.9816646780746,971.4668996953305,929.8453043668745,580.1241599999998
1533058342.4229999,998.681044090609,1521.4160788992765,1082.1737795517345,938.4031126889363,535.4979839999999
1533058342.427,952.0981905174311,1509.0236969687817,1082.1737795517345,984.0428099041367,582.7476479999998
1533058342.431,870.5722337774812,1518.9345577018923,1037.8876266502914,998.3019294359816,950.2510079999998
1533058342.434,823.9834172174147,1509.0236969687817,999.1393684608297,915.5861848350296,963.3738239999998
1533058342.438,922.9809255407506,1504.070803944964,985.3031340780801,952.6622322207811,847.8758399999998
1533058342.4420002,1030.708246668891,1489.20197550256,1032.3554002031126,1018.2682016849967,976.4966399999998
1533058342.446,952.0981905174311,1489.20197550256,1021.2852790439524,1006.8597377580434,1015.8758399999998
1533058342.45,914.2451497490576,1504.070803944964,946.5548758886184,1006.8597377580434,824.2483199999998
1533058342.454,893.8636605640702,1513.9816646780746,927.1807467938875,1023.9753544021669,561.7489919999998
1533058342.458,943.3624147257381,1528.8454184350032,941.016981176637,995.45127383109,671.9999999999998
1533058342.4620001,1051.0897358538784,1528.8454184350032,946.5548758886184,995.45127383109,711.3738239999998
1533058342.466,1013.2426580723935,1533.8033861442962,938.2508679530476,1038.234473934012,598.4993279999998
1533058342.47,972.4796797024186,1538.7613538535893,899.502609763586,1023.9753544021669,819.0013439999998
1533058342.474,937.5365765356466,1531.3269396323874,852.4503436385535,995.45127383109,811.1255039999999
1533058342.4770002,899.6894987541617,1543.714246877407,857.9882383505347,1004.0090821531518,401.62483199999986
1533058342.481,987.0353306973145,1543.714246877407,941.016981176637,1058.200746183027,412.12415999999985
1533058342.485,1048.179798252277,1553.625107610518,960.391110271368,1069.6092101099803,677.2469759999998
1533058342.4889998,1007.416819882302,1570.9703825648305,938.2508679530476,1081.0176740369336,787.4979839999999
1533058342.4929998,949.182289928941,1566.0174895410128,924.4146335702981,1012.5610489678265,994.8718079999998
1533058342.4970002,920.0709879391492,1531.3269396323874,882.8945938924445,929.8453043668745,1055.2496639999997
1533058342.5010002,969.5637791139285,1511.5052181661658,910.572730922746,969.7778488649047,1060.4966399999998
1533058342.505,984.1253930957131,1533.8033861442962,954.8588838241891,998.3019294359816,984.3724799999998
1533058342.5089998,949.182289928941,1551.148661098609,929.946860017477,1012.5610489678265,987.0013439999998
1533058342.5129998,992.861168887406,1543.714246877407,916.1106256347274,1072.4598657148717,1204.874496
1533058342.5170002,911.3352121474561,1499.1128362356708,877.3623674452656,1001.1525850408732,921.3711359999999
1533058342.52,920.0709879391492,1501.5892827475798,833.0762145438225,901.3212237957976,763.8758399999998
1533058342.524,1118.0600415989322,1531.3269396323874,822.0060933846624,1035.3838183291202,803.2496639999998
1533058342.5279999,1059.8255116455714,1496.636389723762,885.6663753808364,1106.691099003119,866.2510079999998
1533058342.532,879.3080095691741,1466.8987328389542,899.502609763586,992.5947767188114,918.7476479999998
1533058342.536,783.2204388474398,1434.689704127713,830.3101013202331,912.735529230138,884.6261759999998
1533058342.54,861.8364579857882,1402.4756007309963,874.5962542216762,909.8790321178593,1049.9973119999997
1533058342.544,896.7735981656716,1395.0411865097944,976.9991261425095,984.0428099041367,1157.6248319999997
1533058342.5479999,853.1006821940953,1399.9991542190874,1004.677263172811,1029.67666561195,1015.8758399999998
1533058342.552,838.5450311991992,1397.5227077071786,1060.0278689686118,949.8115766158896,790.1214719999998
1533058342.556,736.6375852742619,1382.6538792647748,1065.5657636805931,904.1777209080763,577.5006719999998
1533058342.559,838.5450311991992,1360.350636601169,1073.8697716161637,944.1102654061065,792.7503359999998
1533058342.563,963.7439039107255,1345.4868828442404,1112.6180298056256,955.5187293330598,1023.7463039999998
1533058342.5670002,917.1550873506591,1377.6959115554816,1084.9398927753239,986.8934655090283,1005.3765119999998
1533058342.571,856.0106197956967,1385.1303257766835,1035.121513426702,1038.234473934012,819.0013439999998
1533058342.575,803.6019280324273,1370.2614973342797,1015.7473843319711,1032.5273212168415,803.2496639999998
1533058342.579,885.1278847723772,1367.785050822371,1029.5836187147208,1029.67666561195,895.1255039999999
1533058342.583,984.1253930957131,1375.2194650435729,1079.4019980633427,1035.3838183291202,842.6234879999998
1533058342.5870001,949.182289928941,1392.5647399978855,1082.1737795517345,1026.8260100070586,997.5006719999998
1533058342.591,920.0709879391492,1402.4756007309963,1062.7996504570037,1026.8260100070586,748.1241599999998
1533058342.595,896.7735981656716,1397.5227077071786,1057.2617557450224,1046.7922822560736,496.1241599999998
1533058342.599,905.5093739573647,1414.8679826614914,1060.0278689686118,1018.2682016849967,648.3724799999998
1533058342.6020002,1010.3267574839035,1439.6425971515307,1082.1737795517345,995.45127383109,944.9986559999998
1533058342.606,957.9180657206341,1454.5114255939345,1060.0278689686118,1046.7922822560736,685.1228159999998
1533058342.61,850.1907445924937,1461.9458398151364,1007.4433763964005,1023.9753544021669,587.9999999999998
1533058342.6139998,856.0106197956967,1459.4693933032277,982.5370208544907,964.0765376551216,797.9973119999999
1533058342.6179998,879.3080095691741,1452.0349790820258,988.0692473016695,946.960921010998,692.9986559999998
1533058342.6220002,922.9809255407506,1454.5114255939345,1026.8175054911312,949.8115766158896,498.7476479999998
1533058342.6260002,905.5093739573647,1454.5114255939345,1040.6594081386834,941.2537682938279,511.8758399999998
1533058342.63,890.9537229624686,1437.1661506396217,1026.8175054911312,912.735529230138,797.9973119999999
1533058342.6339998,832.7191930091077,1404.9520472429053,1068.3318769041825,907.0283765129678,811.1255039999999
1533058342.6379998,786.1363394359298,1390.0882934859767,1012.9812711083817,895.6199125860145,1049.9973119999997
1533058342.6420002,928.8008007439536,1404.9520472429053,1004.677263172811,961.220040542843,1351.8758399999997
1533058342.645,949.182289928941,1424.778843394602,1065.5657636805931,1015.4175460801051,921.3711359999999
1533058342.649,861.8364579857882,1437.1661506396217,999.1393684608297,935.5524570840447,816.3724799999998
1533058342.6529999,858.9265203841867,1439.6425971515307,954.8588838241891,901.3212237957976,1133.9973119999997
1533058342.657,905.5093739573647,1454.5114255939345,971.4668996953305,946.960921010998,963.3738239999998
1533058342.661,992.861168887406,1469.3802540363383,1024.0513922675418,1018.2682016849967,855.7463039999998
1533058342.665,1042.3539600621855,1466.8987328389542,1054.495642521433,1063.90205739281,800.6261759999998
1533058342.669,978.2995549056216,1461.9458398151364,1051.7295292978436,1043.9357851437949,750.7476479999998
1533058342.6729999,899.6894987541617,1456.9878721058435,1043.4255213622728,1046.7922822560736,923.9999999999998
1533058342.677,928.8008007439536,1454.5114255939345,985.3031340780801,998.3019294359816,971.2496639999998
1533058342.681,1048.179798252277,1461.9458398151364,976.9991261425095,998.3019294359816,837.3765119999998
1533058342.684,1179.2045091538948,1476.8146682575402,1032.3554002031126,1012.5610489678265,819.0013439999998
1533058342.688,1115.1441410104424,1476.8146682575402,1035.121513426702,992.5947767188114,716.6261759999998
1533058342.6920002,940.4524771241366,1459.4693933032277,1007.4433763964005,1032.5273212168415,1223.2496639999997
1533058342.696,879.3080095691741,1456.9878721058435,963.1628917597599,1043.9357851437949,1231.1255039999999
1533058342.7,987.0353306973145,1469.3802540363383,979.7652393660989,1032.5273212168415,656.2483199999998
1533058342.704,1120.9699792005338,1479.2911147694492,1007.4433763964005,1061.0514017879186,824.2483199999998
1533058342.708,1021.972470877198,1484.244007793267,1004.677263172811,1049.6429378609653,1060.4966399999998
1533058342.7120001,911.3352121474561,1491.6784220144689,979.7652393660989,1015.4175460801051,984.3724799999998
1533058342.716,911.3352121474561,1491.6784220144689,943.7887626650289,1026.8260100070586,616.8744959999998
1533058342.72,981.2154554941116,1499.1128362356708,999.1393684608297,1069.6092101099803,559.1255039999999
1533058342.724,1106.414328205638,1511.5052181661658,1068.3318769041825,1115.2430658177936,968.6261759999998
1533058342.7270002,1056.9155740439699,1518.9345577018923,1104.3140218700548,1078.1670184320421,1084.1241599999998
1533058342.731,972.4796797024186,1509.0236969687817,1098.7761271580735,1066.7585545050888,832.1241599999998
1533058342.735,940.4524771241366,1501.5892827475798,1087.7060059989133,1066.7585545050888,755.9999999999998
1533058342.7389998,896.7735981656716,1494.159943211853,1076.6358848397533,1004.0090821531518,952.8744959999998
1533058342.7429998,960.8339663091241,1499.1128362356708,1109.8519165820362,978.3356571869665,1028.9986559999998
1533058342.7470002,931.7167013324436,1496.636389723762,1140.2961668359271,1015.4175460801051,821.6248319999999
1533058342.7510002,818.1635420142118,1461.9458398151364,1131.9921589003563,1052.4935934658567,1110.3751679999998
1533058342.755,890.9537229624686,1479.2911147694492,1073.8697716161637,1023.9753544021669,1220.6261759999998
1533058342.7589998,934.6266389340451,1504.070803944964,1046.1916345858622,981.1863127918581,971.2496639999998
1533058342.7629998,893.8636605640702,1489.20197550256,1096.010013934484,981.1863127918581,1128.7503359999998
1533058342.766,952.0981905174311,1491.6784220144689,1076.6358848397533,1026.8260100070586,1047.3738239999998
1533058342.77,899.6894987541617,1484.244007793267,993.6071420136509,1009.710393362935,913.5006719999998
1533058342.774,812.3377038241202,1476.8146682575402,943.7887626650289,958.3693849379514,1042.1214719999998
1533058342.7779999,914.2451497490576,1474.333147060156,935.4847547294582,1018.2682016849967,1254.7476479999998
1533058342.782,1019.0625332755965,1466.8987328389542,938.2508679530476,1026.8260100070586,923.9999999999998
1533058342.786,1010.3267574839035,1469.3802540363383,946.5548758886184,998.3019294359816,677.2469759999998
1533058342.79,949.182289928941,1481.767561281358,913.3445124111379,1066.7585545050888,792.7503359999998
1533058342.794,832.7191930091077,1489.20197550256,882.8945938924445,998.3019294359816,808.4966399999998
1533058342.7979999,838.5450311991992,1486.7255289906511,869.0583595096949,912.735529230138,776.9986559999998
1533058342.802,940.4524771241366,1476.8146682575402,921.6428520819062,941.2537682938279,653.6248319999999
1533058342.806,963.7439039107255,1484.244007793267,982.5370208544907,935.5524570840447,540.7503359999998
1533058342.809,873.4821713790827,1461.9458398151364,996.3732552372403,1006.8597377580434,897.7489919999998
1533058342.813,885.1278847723772,1444.6005648608236,979.7652393660989,1029.67666561195,1026.3751679999998
1533058342.8170002,861.8364579857882,1437.1661506396217,899.502609763586,867.0958320149375,868.8744959999998
1533058342.821,911.3352121474561,1452.0349790820258,913.3445124111379,875.6536403369994,918.7476479999998
1533058342.825,975.38961730402,1454.5114255939345,982.5370208544907,912.735529230138,881.9973119999999
1533058342.829,981.2154554941116,1452.0349790820258,960.391110271368,944.1102654061065,824.2483199999998
1533058342.833,949.182289928941,1476.8146682575402,938.2508679530476,915.5861848350296,433.12281599999983
1533058342.8370001,812.3377038241202,1474.333147060156,929.946860017477,909.8790321178593,459.3738239999998
1533058342.841,928.8008007439536,1454.5114255939345,960.391110271368,1026.8260100070586,758.6234879999998
1533058342.845,1004.5068822807006,1449.5585325701168,999.1393684608297,1046.7922822560736,742.8718079999998
1533058342.849,928.8008007439536,1459.4693933032277,1021.2852790439524,1026.8260100070586,845.2469759999998
1533058342.8520002,960.8339663091241,1476.8146682575402,1004.677263172811,975.4850015820749,866.2510079999998
1533058342.856,1033.624147257381,1494.159943211853,990.835360525259,946.960921010998,910.8718079999998
1533058342.86,1001.5909816922104,1496.636389723762,1054.495642521433,964.0765376551216,1118.2510079999997
1533058342.8639998,949.182289928941,1481.767561281358,1079.4019980633427,1012.5610489678265,994.8718079999998
1533058342.8679998,1010.3267574839035,1489.20197550256,1035.121513426702,1055.3500905781355,860.9986559999998
1533058342.8720002,1013.2426580723935,1504.070803944964,982.5370208544907,1055.3500905781355,595.8758399999998
1533058342.8760002,957.9180657206341,1494.159943211853,935.4847547294582,975.4850015820749,393.7489919999999
1533058342.88,1056.9155740439699,1471.8567005482473,938.2508679530476,949.8115766158896,939.7463039999998
1533058342.8839998,1126.7958173906254,1466.8987328389542,999.1393684608297,1009.710393362935,1131.3738239999998
1533058342.8879998,1039.444022460584,1456.9878721058435,1026.8175054911312,1095.2826350761657,771.7463039999998
1533058342.891,987.0353306973145,1444.6005648608236,1024.0513922675418,1049.6429378609653,803.2496639999998
1533058342.895,905.5093739573647,1442.1241183489149,993.6071420136509,989.7441211139198,881.9973119999999
1533058342.899,928.8008007439536,1447.0770113727326,963.1628917597599,1018.2682016849967,1060.4966399999998
1533058342.9029999,1042.3539600621855,1437.1661506396217,965.9290049833493,1018.2682016849967,994.8718079999998
1533058342.907,1030.708246668891,1417.3444291734002,952.0927706005997,1043.9357851437949,656.2483199999998
1533058342.911,1016.1525956739949,1424.778843394602,932.7186415058688,1075.3163628271504,866.2510079999998
1533058342.915,987.0353306973145,1434.689704127713,888.4324886044258,1032.5273212168415,876.7503359999998
1533058342.919,989.9452682989161,1432.213257615804,852.4503436385535,972.6285044697963,637.8731519999998
1533058342.9229999,1094.762651825455,1442.1241183489149,882.8945938924445,1018.2682016849967,850.4993279999998
1533058342.927,1088.9427766222518,1459.4693933032277,907.8066176991566,1075.3163628271504,884.6261759999998
1533058342.931,963.7439039107255,1442.1241183489149,877.3623674452656,1038.234473934012,923.9999999999998
1533058342.934,879.3080095691741,1444.6005648608236,857.9882383505347,992.5947767188114,887.2496639999998
1533058342.938,911.3352121474561,1461.9458398151364,857.9882383505347,984.0428099041367,640.4966399999998
1533058342.9420002,1027.7983090672894,1449.5585325701168,921.6428520819062,1026.8260100070586,629.9973119999999
1533058342.946,989.9452682989161,1439.6425971515307,949.3209891122078,1015.4175460801051,577.5006719999998
1533058342.95,858.9265203841867,1419.8208756853091,935.4847547294582,961.220040542843,992.2483199999998
1533058342.954,844.3649064024022,1444.6005648608236,902.2687229871754,921.2874960448127,1233.7489919999996
1533058342.958,917.1550873506591,1489.20197550256,824.7778748730543,918.4368404399212,1005.3765119999998
1533058342.9620001,1010.3267574839035,1504.070803944964,783.2578351952006,929.8453043668745,829.5006719999998
1533058342.966,1033.624147257381,1511.5052181661658,791.5618431307714,929.8453043668745,574.8718079999998
1533058342.97,966.6538415123271,1494.159943211853,799.8658510663421,1001.1525850408732,645.7489919999998
1533058342.974,867.6622961758798,1489.20197550256,791.5618431307714,969.7778488649047,989.6248319999999
1533058342.9770002,870.5722337774812,1481.767561281358,741.7434637821494,864.245176410046,1084.1241599999998
1533058342.981,1036.5340848589824,1479.2911147694492,794.3336246191633,872.8029847321078,706.1214719999998
1533058342.985,1123.8799168021353,1486.7255289906511,916.1106256347274,938.4031126889363,1076.24832
1533058342.9889998,984.1253930957131,1469.3802540363383,924.4146335702981,924.1439931570914,1118.2510079999997
1533058342.9929998,844.3649064024022,1459.4693933032277,896.7364965399964,938.4031126889363,519.7463039999998
1533058342.9970002,922.9809255407506,1459.4693933032277,938.2508679530476,924.1439931570914,687.7463039999998
1533058343.0010002,1007.416819882302,1474.333147060156,1012.9812711083817,875.6536403369994,1173.3765119999996
1533058343.005,1097.6785524139448,1491.6784220144689,974.2330129189199,929.8453043668745,1333.500672
1533058343.0089998,1103.4984276171479,1501.5892827475798,952.0927706005997,966.9271932600132,910.8718079999998
1533058343.0129998,1048.179798252277,1511.5052181661658,985.3031340780801,904.1777209080763,952.8744959999998
1533058343.016,1027.7983090672894,1496.636389723762,960.391110271368,909.8790321178593,958.1214719999998
1533058343.02,1054.0056364423685,1491.6784220144689,996.3732552372403,932.695959971766,622.1214719999998
1533058343.024,1161.7329575705087,1491.6784220144689,1035.121513426702,889.9127598688442,637.8731519999998
1533058343.0279999,1059.8255116455714,1476.8146682575402,952.0927706005997,849.980215370814,687.7463039999998
1533058343.032,861.8364579857882,1454.5114255939345,918.8767388583168,849.980215370814,658.8718079999998
1533058343.036,806.5178286209173,1442.1241183489149,952.0927706005997,898.4705681909061,640.4966399999998
1533058343.04,989.9452682989161,1464.4222863270454,960.391110271368,961.220040542843,782.2510079999998
1533058343.044,1062.735449247173,1466.8987328389542,976.9991261425095,1009.710393362935,952.8744959999998
1533058343.0479999,899.6894987541617,1459.4693933032277,1035.121513426702,1023.9753544021669,1102.4993279999997
1533058343.052,858.9265203841867,1442.1241183489149,1043.4255213622728,984.0428099041367,1133.9973119999997
1533058343.056,856.0106197956967,1442.1241183489149,1010.2094896199899,872.8029847321078,1021.1228159999998
1533058343.059,856.0106197956967,1434.689704127713,1012.9812711083817,852.8367124830927,874.1214719999998
1533058343.063,952.0981905174311,1424.778843394602,1029.5836187147208,949.8115766158896,651.0013439999998
1533058343.0670002,940.4524771241366,1424.778843394602,1040.6594081386834,969.7778488649047,735.0013439999998
1533058343.071,841.4549688008008,1414.8679826614914,1040.6594081386834,932.695959971766,829.5006719999998
1533058343.075,765.7548502509424,1404.9520472429053,1037.8876266502914,909.8790321178593,897.7489919999998
1533058343.079,812.3377038241202,1422.297322197218,990.835360525259,915.5861848350296,1023.7463039999998
1533058343.083,946.2723523273396,1456.9878721058435,979.7652393660989,932.695959971766,958.1214719999998
1533058343.0870001,925.8908631423521,1442.1241183489149,1007.4433763964005,926.994648761983,797.9973119999999
1533058343.091,821.0734796158133,1439.6425971515307,979.7652393660989,932.695959971766,947.6221439999998
1533058343.095,821.0734796158133,1452.0349790820258,965.9290049833493,918.4368404399212,960.7503359999998
1533058343.099,908.4193115589661,1452.0349790820258,957.6249970477785,875.6536403369994,858.3751679999998
1533058343.1020002,911.3352121474561,1469.3802540363383,976.9991261425095,841.4282485561394,692.9986559999998
1533058343.106,890.9537229624686,1506.5472504568727,1032.3554002031126,887.0621042639527,737.6248319999999
1533058343.11,847.2808069908923,1511.5052181661658,1035.121513426702,921.2874960448127,926.6234879999998
1533058343.1139998,823.9834172174147,1489.20197550256,1018.5134975555605,924.1439931570914,719.2496639999998
1533058343.1179998,870.5722337774812,1479.2911147694492,1046.1916345858622,989.7441211139198,779.6221439999998
1533058343.1220002,908.4193115589661,1464.4222863270454,1054.495642521433,932.695959971766,942.3751679999998
1533058343.1260002,934.6266389340451,1469.3802540363383,1051.7295292978436,892.7692569811229,855.7463039999998
1533058343.13,905.5093739573647,1479.2911147694492,1037.8876266502914,901.3212237957976,1210.1214719999998
1533058343.1339998,838.5450311991992,1474.333147060156,1035.121513426702,861.3886792977673,1094.6234879999997
1533058343.1379998,870.5722337774812,1474.333147060156,1048.9577478094516,821.4619763071242,829.5006719999998
1533058343.141,957.9180657206341,1461.9458398151364,1032.3554002031126,875.6536403369994,905.6248319999999
1533058343.145,949.182289928941,1437.1661506396217,1043.4255213622728,975.4850015820749,692.9986559999998
1533058343.149,917.1550873506591,1432.213257615804,1048.9577478094516,1041.0851295389034,483.0013439999998
1533058343.1529999,879.3080095691741,1439.6425971515307,1037.8876266502914,992.5947767188114,380.6261759999999
1533058343.157,917.1550873506591,1452.0349790820258,1029.5836187147208,1032.5273212168415,587.9999999999998
1533058343.161,1045.2698606506754,1464.4222863270454,1035.121513426702,1089.5754823589955,900.3724799999998
1533058343.165,1062.735449247173,1461.9458398151364,1071.1036583925743,995.45127383109,1099.8758399999997
1533058343.169,1048.179798252277,1447.0770113727326,1087.7060059989133,1009.710393362935,1086.7476479999998
1533058343.1729999,943.3624147257381,1471.8567005482473,1071.1036583925743,1100.9839462859488,556.4966399999998
1533058343.177,882.2179471707757,1491.6784220144689,1004.677263172811,1032.5273212168415,651.0013439999998
1533058343.181,1051.0897358538784,1486.7255289906511,1015.7473843319711,984.0428099041367,1047.3738239999998
1533058343.184,1103.4984276171479,1496.636389723762,1057.2617557450224,1100.9839462859488,706.1214719999998
1533058343.188,987.0353306973145,1516.4581111899836,1035.121513426702,1120.9502185349638,422.62348799999984
1533058343.1920002,987.0353306973145,1526.3689719230943,990.835360525259,1118.0995629300724,490.8718079999998
1533058343.196,998.681044090609,1523.8925254111855,971.4668996953305,1118.0995629300724,742.8718079999998
1533058343.2,1036.5340848589824,1533.8033861442962,1015.7473843319711,1126.657371252134,692.9986559999998
1533058343.204,1129.7057549922267,1546.190693389316,1087.7060059989133,1158.0321074281026,635.2496639999998
1533058343.208,1126.7958173906254,1526.3689719230943,1040.6594081386834,1163.7334186378857,761.2469759999998
1533058343.2120001,1103.4984276171479,1516.4581111899836,1015.7473843319711,1180.8490352820093,771.7463039999998
1533058343.216,1083.1169384321604,1538.7613538535893,1010.2094896199899,1092.426137963887,569.6248319999999
1533058343.22,1045.2698606506754,1548.6722145867002,988.0692473016695,995.45127383109,645.7489919999998
1533058343.2229998,1071.471225038866,1531.3269396323874,1026.8175054911312,1006.8597377580434,1144.4966399999998
1533058343.2270002,1045.2698606506754,1509.0236969687817,965.9290049833493,1029.67666561195,939.7463039999998
1533058343.231,1004.5068822807006,1523.8925254111855,913.3445124111379,1058.200746183027,753.3711359999999
1533058343.235,1010.3267574839035,1536.2798326562051,910.572730922746,1023.9753544021669,1162.8718079999999
1533058343.2389998,1045.2698606506754,1523.8925254111855,877.3623674452656,1001.1525850408732,1112.9986559999998
1533058343.2429998,1129.7057549922267,1513.9816646780746,869.0583595096949,1066.7585545050888,994.8718079999998
1533058343.2470002,1155.9071193804173,1513.9816646780746,838.6141092558039,1098.1332906810571,1091.9999999999998
1533058343.2510002,1091.8527142238534,1513.9816646780746,802.6319642899315,1035.3838183291202,1055.2496639999997
1533058343.255,992.861168887406,1513.9816646780746,786.0296166835925,1055.3500905781355,989.6248319999999
1533058343.2589998,963.7439039107255,1506.5472504568727,772.1877140360405,1018.2682016849967,475.1255039999998
1533058343.2629998,1100.5884900155463,1501.5892827475798,822.0060933846624,929.8453043668745,454.1214719999998
1533058343.266,1135.5256301954298,1501.5892827475798,830.3101013202331,955.5187293330598,671.9999999999998
1533058343.27,995.7711064890075,1496.636389723762,794.3336246191633,1023.9753544021669,976.4966399999998
1533058343.274,966.6538415123271,1501.5892827475798,772.1877140360405,1018.2682016849967,918.7476479999998
1533058343.2779999,992.861168887406,1496.636389723762,783.2578351952006,1021.1188572898883,889.8731519999998
1533058343.282,1170.4687333622019,1506.5472504568727,835.8479960322144,1189.406843604071,829.5006719999998
1533058343.286,1217.0515869353796,1526.3689719230943,896.7364965399964,1223.632235384931,832.1241599999998
1533058343.29,1010.3267574839035,1528.8454184350032,924.4146335702981,1115.2430658177936,1141.873152
1533058343.294,995.7711064890075,1538.7613538535893,918.8767388583168,1075.3163628271504,860.9986559999998
1533058343.2979999,1024.888371465688,1553.625107610518,949.3209891122078,1058.200746183027,590.6234879999998
1533058343.302,1065.6513498356628,1553.625107610518,974.2330129189199,1095.2826350761657,569.6248319999999
1533058343.306,1091.8527142238534,1543.714246877407,963.1628917597599,1081.0176740369336,763.8758399999998
1533058343.309,1033.624147257381,1538.7613538535893,971.4668996953305,1135.2093380668089,735.0013439999998
1533058343.313,978.2995549056216,1536.2798326562051,1001.9111499492216,1120.9502185349638,545.9973119999999
1533058343.3170002,969.5637791139285,1538.7613538535893,957.6249970477785,966.9271932600132,627.3738239999998
1533058343.321,1086.0328390206505,1566.0174895410128,941.016981176637,924.1439931570914,895.1255039999999
1533058343.325,1094.762651825455,1568.4939360529218,990.835360525259,978.3356571869665,1155.0013439999998
1533058343.329,981.2154554941116,1541.2378003654983,1018.5134975555605,961.220040542843,1236.3724799999998
1533058343.333,1010.3267574839035,1538.7613538535893,1026.8175054911312,1081.0176740369336,1139.2496639999997
1533058343.3370001,989.9452682989161,1521.4160788992765,999.1393684608297,1115.2430658177936,992.2483199999998
1533058343.341,981.2154554941116,1523.8925254111855,1021.2852790439524,958.3693849379514,755.9999999999998
1533058343.345,963.7439039107255,1533.8033861442962,1090.4777874873052,1029.67666561195,821.6248319999999
1533058343.3479998,995.7711064890075,1521.4160788992765,1093.2439007108946,1135.2093380668089,910.8718079999998
1533058343.3520002,989.9452682989161,1509.0236969687817,1096.010013934484,992.5947767188114,700.8744959999998
1533058343.356,815.2476414257218,1486.7255289906511,1087.7060059989133,884.2114486590611,874.1214719999998
1533058343.36,940.4524771241366,1494.159943211853,1104.3140218700548,978.3356571869665,923.9999999999998
1533058343.3639998,1080.2070008305589,1491.6784220144689,1098.7761271580735,938.4031126889363,808.4966399999998
1533058343.3679998,847.2808069908923,1481.767561281358,1079.4019980633427,867.0958320149375,1115.6221439999997
1533058343.3720002,762.8389496624524,1486.7255289906511,1090.4777874873052,889.9127598688442,855.7463039999998
1533058343.3760002,754.1091368576479,1471.8567005482473,1073.8697716161637,938.4031126889363,406.8718079999999
1533058343.38,835.6291306107092,1464.4222863270454,1084.9398927753239,924.1439931570914,530.2510079999998
1533058343.3839998,946.2723523273396,1479.2911147694492,1137.5243853475354,964.0765376551216,808.4966399999998
1533058343.3879998,955.0081281190326,1479.2911147694492,1154.1324012186767,1049.6429378609653,918.7476479999998
1533058343.391,803.6019280324273,1449.5585325701168,1156.898514442266,981.1863127918581,976.4966399999998
1533058343.395,660.9374667244035,1444.6005648608236,1143.0622800595165,932.695959971766,839.9999999999998
1533058343.399,791.9562146391328,1447.0770113727326,1093.2439007108946,892.7692569811229,645.7489919999998
1533058343.4029999,966.6538415123271,1466.8987328389542,1101.5479086464654,844.2789041610309,679.8758399999998
1533058343.407,896.7735981656716,1461.9458398151364,1118.1502562528044,867.0958320149375,769.1228159999998
1533058343.411,800.6919904308259,1439.6425971515307,1087.7060059989133,907.0283765129678,931.8758399999998
1533058343.415,774.4906260426353,1461.9458398151364,1037.8876266502914,884.2114486590611,1052.6261759999998
1533058343.419,838.5450311991992,1486.7255289906511,1010.2094896199899,926.994648761983,908.2483199999998
1533058343.4229999,879.3080095691741,1491.6784220144689,1062.7996504570037,941.2537682938279,640.4966399999998
1533058343.427,922.9809255407506,1496.636389723762,1073.8697716161637,972.6285044697963,763.8758399999998
1533058343.431,931.7167013324436,1499.1128362356708,1048.9577478094516,1041.0851295389034,950.2510079999998
1533058343.434,777.4005636442369,1474.333147060156,1032.3554002031126,949.8115766158896,1078.8718079999999
1533058343.438,786.1363394359298,1464.4222863270454,976.9991261425095,907.0283765129678,916.1241599999998
1533058343.4420002,984.1253930957131,1506.5472504568727,1001.9111499492216,1043.9357851437949,800.6261759999998
1533058343.446,1071.471225038866,1511.5052181661658,1035.121513426702,1055.3500905781355,879.3738239999998
1533058343.45,952.0981905174311,1484.244007793267,1048.9577478094516,995.45127383109,855.7463039999998
1533058343.454,800.6919904308259,1459.4693933032277,1040.6594081386834,1095.2826350761657,1052.6261759999998
1533058343.458,835.6291306107092,1474.333147060156,979.7652393660989,1083.868329641825,1207.4979839999999
1533058343.4620001,966.6538415123271,1506.5472504568727,1048.9577478094516,992.5947767188114,1239.0013439999998
1533058343.466,1027.7983090672894,1501.5892827475798,1090.4777874873052,1052.4935934658567,1294.1214719999998
1533058343.47,1048.179798252277,1504.070803944964,999.1393684608297,1063.90205739281,1071.0013439999998
1533058343.4729998,1071.471225038866,1521.4160788992765,999.1393684608297,1052.4935934658567,866.2510079999998
1533058343.4770002,931.7167013324436,1516.4581111899836,1007.4433763964005,1058.200746183027,1023.7463039999998
1533058343.481,940.4524771241366,1506.5472504568727,1026.8175054911312,1049.6429378609653,955.4979839999999
1533058343.485,1039.444022460584,1518.9345577018923,1115.384143029215,1043.9357851437949,716.6261759999998
1533058343.4889998,984.1253930957131,1518.9345577018923,1107.0801350936442,1098.1332906810571,559.1255039999999
1533058343.4929998,969.5637791139285,1518.9345577018923,1076.6358848397533,1132.3586824619172,727.1255039999999
1533058343.4970002,949.182289928941,1521.4160788992765,1068.3318769041825,1058.200746183027,763.8758399999998
1533058343.5010002,998.681044090609,1528.8454184350032,1032.3554002031126,1006.8597377580434,514.4993279999998
1533058343.505,1123.8799168021353,1536.2798326562051,1032.3554002031126,1038.234473934012,921.3711359999999
1533058343.5089998,1056.9155740439699,1518.9345577018923,999.1393684608297,1089.5754823589955,989.6248319999999
1533058343.5129998,888.0378223739787,1499.1128362356708,949.3209891122078,1058.200746183027,837.3765119999998
1533058343.516,882.2179471707757,1494.159943211853,924.4146335702981,1046.7922822560736,1102.4993279999997
1533058343.52,940.4524771241366,1501.5892827475798,943.7887626650289,995.45127383109,929.2469759999998
1533058343.524,1054.0056364423685,1513.9816646780746,1012.9812711083817,1006.8597377580434,811.1255039999999
1533058343.5279999,1051.0897358538784,1521.4160788992765,1032.3554002031126,1032.5273212168415,860.9986559999998
1533058343.532,940.4524771241366,1536.2798326562051,1043.4255213622728,992.5947767188114,926.6234879999998
1533058343.536,885.1278847723772,1548.6722145867002,1010.2094896199899,1035.3838183291202,905.6248319999999
1533058343.54,1027.7983090672894,1536.2798326562051,965.9290049833493,1041.0851295389034,755.9999999999998
1533058343.544,1164.6428951721102,1506.5472504568727,963.1628917597599,1041.0851295389034,803.2496639999998
1533058343.5479999,1027.7983090672894,1494.159943211853,946.5548758886184,1058.200746183027,813.7489919999998
1533058343.552,928.8008007439536,1511.5052181661658,941.016981176637,1038.234473934012,1042.1214719999998
1533058343.555,957.9180657206341,1523.8925254111855,899.502609763586,1052.4935934658567,795.3738239999998
1533058343.559,1048.179798252277,1536.2798326562051,907.8066176991566,1052.4935934658567,640.4966399999998
1533058343.563,1118.0600415989322,1523.8925254111855,976.9991261425095,975.4850015820749,1147.1255039999999
1533058343.5670002,1042.3539600621855,1496.636389723762,999.1393684608297,975.4850015820749,989.6248319999999
1533058343.571,995.7711064890075,1499.1128362356708,1024.0513922675418,1021.1188572898883,653.6248319999999
1533058343.575,984.1253930957131,1499.1128362356708,1015.7473843319711,1046.7922822560736,603.7463039999998
1533058343.579,989.9452682989161,1491.6784220144689,1018.5134975555605,1038.234473934012,929.2469759999998
1533058343.583,1091.8527142238534,1504.070803944964,1079.4019980633427,1038.234473934012,858.3751679999998
1533058343.5870001,1106.414328205638,1518.9345577018923,1120.9220377411962,1058.200746183027,622.1214719999998
1533058343.591,992.861168887406,1496.636389723762,1123.6881509647858,1049.6429378609653,824.2483199999998
1533058343.595,987.0353306973145,1476.8146682575402,1107.0801350936442,1058.200746183027,556.4966399999998
1533058343.5979998,987.0353306973145,1471.8567005482473,1104.3140218700548,1023.9753544021669,535.4979839999999
1533058343.6020002,1007.416819882302,1481.767561281358,1112.6180298056256,1001.1525850408732,1007.9999999999998
1533058343.606,1086.0328390206505,1484.244007793267,1093.2439007108946,1061.0514017879186,1073.6248319999997
1533058343.61,1155.9071193804173,1489.20197550256,1090.4777874873052,1058.200746183027,926.6234879999998
1533058343.6139998,1103.4984276171479,1513.9816646780746,1087.7060059989133,1052.4935934658567,839.9999999999998
1533058343.6179998,931.7167013324436,1489.20197550256,1054.495642521433,1046.7922822560736,635.2496639999998
1533058343.6220002,1036.5340848589824,1469.3802540363383,1084.9398927753239,1061.0514017879186,598.4993279999998
1533058343.6260002,1115.1441410104424,1474.333147060156,1126.4542641883752,1081.0176740369336,955.4979839999999
1533058343.63,1016.1525956739949,1489.20197550256,1112.6180298056256,1009.710393362935,1178.6234879999997
1533058343.6339998,992.861168887406,1479.2911147694492,1096.010013934484,975.4850015820749,805.8731519999998
1533058343.6379998,1007.416819882302,1456.9878721058435,1065.5657636805931,1049.6429378609653,553.8731519999998
1533058343.641,1083.1169384321604,1466.8987328389542,1118.1502562528044,1049.6429378609653,640.4966399999998
1533058343.645,1115.1441410104424,1479.2911147694492,1140.2961668359271,1018.2682016849967,1018.4993279999998
1533058343.649,1048.179798252277,1476.8146682575402,1079.4019980633427,1052.4935934658567,1338.7476479999998
1533058343.6529999,978.2995549056216,1484.244007793267,1065.5657636805931,1018.2682016849967,955.4979839999999
1533058343.657,943.3624147257381,1489.20197550256,1068.3318769041825,1018.2682016849967,855.7463039999998
1533058343.661,992.861168887406,1474.333147060156,1107.0801350936442,1012.5610489678265,903.0013439999998
1533058343.665,1062.735449247173,1481.767561281358,1148.600174771498,995.45127383109,787.4979839999999
1533058343.669,1071.471225038866,1486.7255289906511,1131.9921589003563,1006.8597377580434,871.4979839999999
1533058343.6729999,1109.3242658072393,1479.2911147694492,1104.3140218700548,938.4031126889363,805.8731519999998
1533058343.677,1091.8527142238534,1481.767561281358,1026.8175054911312,858.5380236928758,892.4966399999998
1533058343.68,1007.416819882302,1489.20197550256,1015.7473843319711,924.1439931570914,769.1228159999998
1533058343.684,1167.5587957606003,1501.5892827475798,1062.7996504570037,995.45127383109,766.4993279999998
1533058343.688,1190.8502225471893,1494.159943211853,1071.1036583925743,1032.5273212168415,721.8731519999998
1533058343.6920002,960.8339663091241,1476.8146682575402,1060.0278689686118,995.45127383109,614.2510079999998
1533058343.696,882.2179471707757,1471.8567005482473,1035.121513426702,907.0283765129678,769.1228159999998
1533058343.7,911.3352121474561,1469.3802540363383,1048.9577478094516,986.8934655090283,1021.1228159999998
1533058343.704,1048.179798252277,1481.767561281358,1068.3318769041825,1132.3586824619172,997.5006719999998
1533058343.708,1109.3242658072393,1494.159943211853,1007.4433763964005,1072.4598657148717,1071.0013439999998
1533058343.7120001,1024.888371465688,1494.159943211853,957.6249970477785,1001.1525850408732,1133.9973119999997
1533058343.716,908.4193115589661,1476.8146682575402,949.3209891122078,998.3019294359816,939.7463039999998
1533058343.72,972.4796797024186,1459.4693933032277,910.572730922746,955.5187293330598,708.7503359999998
1533058343.7229998,1030.708246668891,1461.9458398151364,946.5548758886184,998.3019294359816,755.9999999999998
1533058343.7270002,946.2723523273396,1476.8146682575402,1026.8175054911312,1018.2682016849967,1068.3724799999998
1533058343.731,940.4524771241366,1481.767561281358,1062.7996504570037,1075.3163628271504,1162.8718079999999
1533058343.735,876.3921089806842,1494.159943211853,1062.7996504570037,1001.1525850408732,1162.8718079999999
1533058343.7389998,821.0734796158133,1491.6784220144689,1079.4019980633427,918.4368404399212,992.2483199999998
1533058343.7429998,931.7167013324436,1469.3802540363383,1126.4542641883752,1012.5610489678265,737.6248319999999
1533058343.7470002,957.9180657206341,1469.3802540363383,1107.0801350936442,1015.4175460801051,716.6261759999998
1533058343.7510002,946.2723523273396,1474.333147060156,1084.9398927753239,935.5524570840447,839.9999999999998
1533058343.755,856.0106197956967,1454.5114255939345,1076.6358848397533,966.9271932600132,819.0013439999998
1533058343.7589998,786.1363394359298,1447.0770113727326,1040.6594081386834,1018.2682016849967,826.8718079999998
1533058343.7629998,978.2995549056216,1466.8987328389542,1076.6358848397533,949.8115766158896,850.4993279999998
1533058343.766,1019.0625332755965,1459.4693933032277,1131.9921589003563,978.3356571869665,923.9999999999998
1533058343.77,928.8008007439536,1432.213257615804,1079.4019980633427,1126.657371252134,776.9986559999998
1533058343.774,922.9809255407506,1447.0770113727326,1026.8175054911312,1041.0851295389034,842.6234879999998
1533058343.7779999,928.8008007439536,1474.333147060156,1021.2852790439524,941.2537682938279,839.9999999999998
1533058343.782,1054.0056364423685,1484.244007793267,1043.4255213622728,992.5947767188114,968.6261759999998
1533058343.786,1048.179798252277,1484.244007793267,1037.8876266502914,1009.710393362935,1091.9999999999998
1533058343.79,949.182289928941,1471.8567005482473,1035.121513426702,1009.710393362935,1047.3738239999998
1533058343.794,899.6894987541617,1456.9878721058435,1015.7473843319711,1043.9357851437949,755.9999999999998
1533058343.7979999,937.5365765356466,1449.5585325701168,957.6249970477785,1029.67666561195,624.7503359999998
1533058343.802,1048.179798252277,1449.5585325701168,929.946860017477,975.4850015820749,826.8718079999998
1533058343.805,984.1253930957131,1447.0770113727326,952.0927706005997,1021.1188572898883,871.4979839999999
1533058343.809,928.8008007439536,1447.0770113727326,935.4847547294582,975.4850015820749,992.2483199999998
1533058343.813,908.4193115589661,1449.5585325701168,913.3445124111379,941.2537682938279,960.7503359999998
1533058343.8170002,838.5450311991992,1437.1661506396217,877.3623674452656,944.1102654061065,708.7503359999998
1533058343.821,914.2451497490576,1417.3444291734002,929.946860017477,898.4705681909061,729.7489919999998
1533058343.825,1065.6513498356628,1442.1241183489149,957.6249970477785,946.960921010998,992.2483199999998
1533058343.829,960.8339663091241,1471.8567005482473,891.1986018280152,961.220040542843,934.4993279999998
1533058343.833,885.1278847723772,1447.0770113727326,871.8244727332843,938.4031126889363,787.4979839999999
1533058343.8370001,902.5994363557631,1412.3864614641072,810.9359722255023,881.3549515467824,740.2483199999998
1533058343.841,908.4193115589661,1432.213257615804,819.2399801610729,892.7692569811229,761.2469759999998
1533058343.845,1019.0625332755965,1456.9878721058435,896.7364965399964,992.5947767188114,824.2483199999998
1533058343.8479998,1030.708246668891,1459.4693933032277,888.4324886044258,1001.1525850408732,903.0013439999998
1533058343.8520002,902.5994363557631,1456.9878721058435,838.6141092558039,1001.1525850408732,1204.874496
1533058343.856,864.7463955873897,1444.6005648608236,747.2813584941308,949.8115766158896,1039.4979839999999
1533058343.86,914.2451497490576,1434.689704127713,733.4394558465788,901.3212237957976,750.7476479999998
1533058343.8639998,966.6538415123271,1442.1241183489149,838.6141092558039,961.220040542843,779.6221439999998
1533058343.8679998,1027.7983090672894,1459.4693933032277,849.684230414964,972.6285044697963,648.3724799999998
1533058343.8720002,1001.5909816922104,1461.9458398151364,808.1698590019129,938.4031126889363,774.3751679999998
1533058343.8760002,893.8636605640702,1476.8146682575402,786.0296166835925,915.5861848350296,1212.7503359999998
1533058343.88,896.7735981656716,1489.20197550256,774.9594955244323,918.4368404399212,1018.4993279999998
1533058343.8839998,995.7711064890075,1474.333147060156,844.1520039677852,995.45127383109,343.87583999999987
1533058343.8879998,1024.888371465688,1484.244007793267,899.502609763586,1043.9357851437949,375.37382399999984
1533058343.891,955.0081281190326,1491.6784220144689,874.5962542216762,955.5187293330598,874.1214719999998
1533058343.895,902.5994363557631,1481.767561281358,838.6141092558039,898.4705681909061,795.3738239999998
1533058343.899,893.8636605640702,1464.4222863270454,849.684230414964,935.5524570840447,671.9999999999998
1533058343.9029999,972.4796797024186,1459.4693933032277,882.8945938924445,961.220040542843,816.3724799999998
1533058343.907,998.681044090609,1464.4222863270454,871.8244727332843,972.6285044697963,797.9973119999999
1533058343.911,966.6538415123271,1461.9458398151364,866.2922462861054,998.3019294359816,871.4979839999999
1533058343.915,957.9180657206341,1456.9878721058435,827.5439880966437,1001.1525850408732,950.2510079999998
1533058343.919,1013.2426580723935,1461.9458398151364,780.4917219716112,958.3693849379514,669.3765119999998
1533058343.9229999,1097.6785524139448,1491.6784220144689,835.8479960322144,961.220040542843,648.3724799999998
1533058343.927,1056.9155740439699,1481.767561281358,874.5962542216762,1029.67666561195,1015.8758399999998
1533058343.93,981.2154554941116,1461.9458398151364,827.5439880966437,1035.3838183291202,984.3724799999998
1533058343.934,949.182289928941,1466.8987328389542,791.5618431307714,1012.5610489678265,992.2483199999998
1533058343.938,966.6538415123271,1461.9458398151364,772.1877140360405,1004.0090821531518,1091.9999999999998
1533058343.9420002,1042.3539600621855,1449.5585325701168,772.1877140360405,1055.3500905781355,845.2469759999998
1533058343.946,1056.9155740439699,1444.6005648608236,794.3336246191633,1115.2430658177936,784.8744959999998
1533058343.95,1068.5612874372644,1464.4222863270454,824.7778748730543,1089.5754823589955,1136.6261759999998
1533058343.954,1039.444022460584,1471.8567005482473,827.5439880966437,1069.6092101099803,1312.4966399999998
1533058343.958,960.8339663091241,1469.3802540363383,783.2578351952006,1049.6429378609653,1136.6261759999998
1533058343.9620001,1042.3539600621855,1466.8987328389542,830.3101013202331,1041.0851295389034,713.9973119999999
1533058343.966,1112.2342034088408,1466.8987328389542,893.970383316407,1072.4598657148717,713.9973119999999
1533058343.97,1074.3811626404674,1466.8987328389542,819.2399801610729,1098.1332906810571,713.9973119999999
1533058343.9729998,1010.3267574839035,1466.8987328389542,797.0997378427527,1083.868329641825,608.9986559999998
1533058343.9770002,955.0081281190326,1464.4222863270454,794.3336246191633,1049.6429378609653,627.3738239999998
1533058343.981,1036.5340848589824,1461.9458398151364,844.1520039677852,1055.3500905781355,637.8731519999998
1533058343.985,1126.7958173906254,1486.7255289906511,899.502609763586,1083.868329641825,960.7503359999998
1533058343.9889998,1059.8255116455714,1504.070803944964,824.7778748730543,1081.0176740369336,1112.9986559999998
1533058343.9929998,957.9180657206341,1481.767561281358,813.7020854490917,1041.0851295389034,931.8758399999998
1533058343.9970002,905.5093739573647,1479.2911147694492,802.6319642899315,1026.8260100070586,847.8758399999998
1533058344.0010002,963.7439039107255,1501.5892827475798,786.0296166835925,1023.9753544021669,766.4993279999998
1533058344.005,1074.3811626404674,1501.5892827475798,838.6141092558039,1035.3838183291202,509.2469759999998
1533058344.0089998,1042.3539600621855,1499.1128362356708,844.1520039677852,1095.2826350761657,564.3724799999998
1533058344.012,952.0981905174311,1509.0236969687817,835.8479960322144,1100.9839462859488,1217.9973119999997
1533058344.016,920.0709879391492,1509.0236969687817,780.4917219716112,1069.6092101099803,1435.87584
1533058344.02,992.861168887406,1509.0236969687817,766.6554875888617,1092.426137963887,1091.9999999999998
1533058344.024,1138.44153078392,1513.9816646780746,835.8479960322144,1103.8346018908403,895.1255039999999
1533058344.0279999,1150.0872441772142,1506.5472504568727,838.6141092558039,1106.691099003119,889.8731519999998
1533058344.032,1054.0056364423685,1516.4581111899836,819.2399801610729,1143.7671463888705,855.7463039999998
1533058344.036,1013.2426580723935,1523.8925254111855,835.8479960322144,1126.657371252134,674.6234879999998
1533058344.04,1042.3539600621855,1528.8454184350032,921.6428520819062,1092.426137963887,653.6248319999999
1533058344.044,1132.6156925938283,1533.8033861442962,1068.3318769041825,1120.9502185349638,965.9973119999999
1533058344.0479999,1150.0872441772142,1511.5052181661658,1084.9398927753239,1123.8008741398555,971.2496639999998
1533058344.052,1033.624147257381,1513.9816646780746,1046.1916345858622,1089.5754823589955,538.1214719999998
1533058344.055,1024.888371465688,1538.7613538535893,1035.121513426702,1086.7248267541038,530.2510079999998
1533058344.059,1042.3539600621855,1538.7613538535893,1001.9111499492216,1026.8260100070586,968.6261759999998
1533058344.063,1059.8255116455714,1533.8033861442962,1029.5836187147208,1006.8597377580434,913.5006719999998
1533058344.0670002,1123.8799168021353,1543.714246877407,1082.1737795517345,1072.4598657148717,787.4979839999999
1533058344.071,1062.735449247173,1521.4160788992765,1079.4019980633427,1069.6092101099803,813.7489919999998
1533058344.075,992.861168887406,1531.3269396323874,1048.9577478094516,1043.9357851437949,755.9999999999998
1533058344.079,1007.416819882302,1531.3269396323874,1010.2094896199899,1018.2682016849967,737.6248319999999
1533058344.083,1074.3811626404674,1513.9816646780746,1032.3554002031126,1006.8597377580434,903.0013439999998
1533058344.0870001,1103.4984276171479,1523.8925254111855,1082.1737795517345,1029.67666561195,944.9986559999998
1533058344.091,1016.1525956739949,1533.8033861442962,1101.5479086464654,1035.3838183291202,892.4966399999998
1533058344.095,1001.5909816922104,1541.2378003654983,1073.8697716161637,1021.1188572898883,994.8718079999998
1533058344.0979998,995.7711064890075,1528.8454184350032,1004.677263172811,964.0765376551216,1084.1241599999998
1533058344.1020002,1045.2698606506754,1511.5052181661658,1048.9577478094516,975.4850015820749,1034.2510079999997
1533058344.106,1112.2342034088408,1501.5892827475798,1115.384143029215,1035.3838183291202,889.8731519999998
1533058344.11,1027.7983090672894,1504.070803944964,1060.0278689686118,1023.9753544021669,905.6248319999999
1533058344.1139998,955.0081281190326,1509.0236969687817,985.3031340780801,1009.710393362935,895.1255039999999
1533058344.1179998,946.2723523273396,1526.3689719230943,924.4146335702981,1001.1525850408732,553.8731519999998
1533058344.1220002,1007.416819882302,1531.3269396323874,963.1628917597599,986.8934655090283,790.1214719999998
1533058344.1260002,1062.735449247173,1506.5472504568727,968.6951182069387,986.8934655090283,1215.3738239999998
1533058344.13,992.861168887406,1486.7255289906511,916.1106256347274,1001.1525850408732,874.1214719999998
1533058344.1339998,899.6894987541617,1479.2911147694492,932.7186415058688,969.7778488649047,724.4966399999998
1533058344.137,934.6266389340451,1484.244007793267,921.6428520819062,938.4031126889363,598.4993279999998
1533058344.141,1021.972470877198,1499.1128362356708,965.9290049833493,969.7778488649047,343.87583999999987
1533058344.145,1056.9155740439699,1513.9816646780746,993.6071420136509,1015.4175460801051,842.6234879999998
1533058344.149,998.681044090609,1506.5472504568727,932.7186415058688,992.5947767188114,1186.4993279999997
1533058344.1529999,937.5365765356466,1521.4160788992765,932.7186415058688,952.6622322207811,779.6221439999998
1533058344.157,905.5093739573647,1543.714246877407,938.2508679530476,938.4031126889363,926.6234879999998
1533058344.161,952.0981905174311,1513.9816646780746,952.0927706005997,932.695959971766,1068.3724799999998
1533058344.165,1059.8255116455714,1501.5892827475798,1037.8876266502914,964.0765376551216,1015.8758399999998
1533058344.169,1039.444022460584,1506.5472504568727,1062.7996504570037,989.7441211139198,889.8731519999998
1533058344.1729999,922.9809255407506,1513.9816646780746,1079.4019980633427,986.8934655090283,950.2510079999998
1533058344.177,879.3080095691741,1518.9345577018923,1065.5657636805931,961.220040542843,863.6221439999998
1533058344.18,946.2723523273396,1521.4160788992765,1057.2617557450224,926.994648761983,732.3724799999998
1533058344.184,1056.9155740439699,1536.2798326562051,1104.3140218700548,981.1863127918581,968.6261759999998
1533058344.188,1080.2070008305589,1541.2378003654983,1129.226045676767,1032.5273212168415,816.3724799999998
1533058344.1920002,992.861168887406,1536.2798326562051,1126.4542641883752,984.0428099041367,992.2483199999998
1533058344.196,940.4524771241366,1528.8454184350032,1057.2617557450224,949.8115766158896,1057.873152
1533058344.2,1004.5068822807006,1523.8925254111855,1024.0513922675418,952.6622322207811,884.6261759999998
1533058344.204,1051.0897358538784,1521.4160788992765,1057.2617557450224,961.220040542843,897.7489919999998
1533058344.208,1021.972470877198,1509.0236969687817,1062.7996504570037,1004.0090821531518,937.1228159999998
1533058344.2120001,960.8339663091241,1518.9345577018923,1054.495642521433,1018.2682016849967,727.1255039999999
1533058344.216,908.4193115589661,1531.3269396323874,1029.5836187147208,989.7441211139198,1078.8718079999999
1533058344.22,899.6894987541617,1536.2798326562051,963.1628917597599,981.1863127918581,971.2496639999998
1533058344.2229998,960.8339663091241,1546.190693389316,976.9991261425095,992.5947767188114,666.7476479999998
1533058344.2270002,1004.5068822807006,1568.4939360529218,1018.5134975555605,986.8934655090283,745.5006719999998
1533058344.231,928.8008007439536,1575.9283502741237,1046.1916345858622,958.3693849379514,1021.1228159999998
1533058344.235,885.1278847723772,1573.4519037622147,1032.3554002031126,984.0428099041367,1042.1214719999998
1533058344.2389998,937.5365765356466,1590.7971787165275,1021.2852790439524,1001.1525850408732,629.9973119999999
1533058344.2429998,1039.444022460584,1593.2736252284365,1082.1737795517345,1023.9753544021669,805.8731519999998
1533058344.2470002,1062.735449247173,1583.3627644953256,1104.3140218700548,1081.0176740369336,721.8731519999998
1533058344.2510002,1001.5909816922104,1561.0595218317198,1051.7295292978436,1058.200746183027,561.7489919999998
1533058344.255,946.2723523273396,1543.714246877407,985.3031340780801,1035.3838183291202,910.8718079999998
1533058344.2589998,943.3624147257381,1548.6722145867002,946.5548758886184,998.3019294359816,929.2469759999998
1533058344.262,1004.5068822807006,1546.190693389316,968.6951182069387,972.6285044697963,740.2483199999998
1533058344.266,1045.2698606506754,1546.190693389316,979.7652393660989,1032.5273212168415,784.8744959999998
1533058344.27,1007.416819882302,1541.2378003654983,952.0927706005997,1069.6092101099803,992.2483199999998
1533058344.274,952.0981905174311,1511.5052181661658,963.1628917597599,1026.8260100070586,1144.4966399999998
1533058344.2779999,940.4524771241366,1496.636389723762,924.4146335702981,989.7441211139198,853.1228159999998
1533058344.282,1030.708246668891,1509.0236969687817,921.6428520819062,1026.8260100070586,761.2469759999998
1533058344.286,1074.3811626404674,1518.9345577018923,1015.7473843319711,1078.1670184320421,855.7463039999998
1533058344.29,978.2995549056216,1513.9816646780746,1032.3554002031126,1066.7585545050888,771.7463039999998
1533058344.294,905.5093739573647,1509.0236969687817,1007.4433763964005,1069.6092101099803,942.3751679999998
1533058344.2979999,885.1278847723772,1521.4160788992765,1029.5836187147208,1069.6092101099803,803.2496639999998
1533058344.302,893.8636605640702,1518.9345577018923,1040.6594081386834,1018.2682016849967,404.24831999999986
1533058344.305,989.9452682989161,1528.8454184350032,1029.5836187147208,1032.5273212168415,748.1241599999998
1533058344.309,1010.3267574839035,1551.148661098609,1021.2852790439524,1086.7248267541038,934.4993279999998
1533058344.313,934.6266389340451,1536.2798326562051,1035.121513426702,1081.0176740369336,1013.2469759999998
1533058344.3170002,911.3352121474561,1513.9816646780746,1018.5134975555605,1026.8260100070586,1139.2496639999997
1533058344.321,937.5365765356466,1513.9816646780746,1040.6594081386834,1015.4175460801051,776.9986559999998
1533058344.325,1007.416819882302,1516.4581111899836,1084.9398927753239,1063.90205739281,829.5006719999998
1533058344.329,1007.416819882302,1511.5052181661658,1021.2852790439524,1069.6092101099803,1047.3738239999998
1533058344.333,957.9180657206341,1496.636389723762,1001.9111499492216,1072.4598657148717,748.1241599999998
1533058344.3370001,940.4524771241366,1484.244007793267,993.6071420136509,1058.200746183027,816.3724799999998
1533058344.341,972.4796797024186,1479.2911147694492,996.3732552372403,1035.3838183291202,981.7489919999998
1533058344.345,1051.0897358538784,1489.20197550256,1026.8175054911312,1026.8260100070586,651.0013439999998
1533058344.3479998,1033.624147257381,1504.070803944964,1029.5836187147208,1012.5610489678265,811.1255039999999
1533058344.3520002,978.2995549056216,1523.8925254111855,1032.3554002031126,998.3019294359816,1123.4979839999999
1533058344.356,972.4796797024186,1553.625107610518,990.835360525259,989.7441211139198,905.6248319999999
1533058344.36,1007.416819882302,1583.3627644953256,985.3031340780801,989.7441211139198,721.8731519999998
1533058344.3639998,1074.3811626404674,1598.2265182522542,1029.5836187147208,1018.2682016849967,1173.3765119999996
1533058344.3679998,1027.7983090672894,1588.3156575191433,1026.8175054911312,1049.6429378609653,1372.874496
1533058344.3720002,949.182289928941,1585.8392110072346,999.1393684608297,1043.9357851437949,979.1255039999999
1533058344.3760002,920.0709879391492,1578.4047967860324,965.9290049833493,1012.5610489678265,724.4966399999998
1533058344.38,888.0378223739787,1588.3156575191433,938.2508679530476,989.7441211139198,643.1255039999999
1533058344.3839998,969.5637791139285,1610.618900182749,993.6071420136509,1029.67666561195,711.3738239999998
1533058344.387,1027.7983090672894,1630.4406216489708,1018.5134975555605,1069.6092101099803,740.2483199999998
1533058344.391,984.1253930957131,1627.9641751370618,999.1393684608297,1038.234473934012,651.0013439999998
1533058344.395,960.8339663091241,1610.618900182749,1024.0513922675418,995.45127383109,614.2510079999998
1533058344.399,934.6266389340451,1608.1424536708403,1024.0513922675418,969.7778488649047,737.6248319999999
1533058344.4029999,978.2995549056216,1598.2265182522542,1087.7060059989133,992.5947767188114,1099.8758399999997
1533058344.407,1033.624147257381,1603.1844859615471,1159.670295930658,1049.6429378609653,881.9973119999999
1533058344.411,987.0353306973145,1600.7080394496384,1107.0801350936442,1072.4598657148717,674.6234879999998
1533058344.415,934.6266389340451,1593.2736252284365,1057.2617557450224,1029.67666561195,1060.4966399999998
1533058344.419,937.5365765356466,1598.2265182522542,996.3732552372403,995.45127383109,1039.4979839999999
1533058344.4229999,1010.3267574839035,1603.1844859615471,976.9991261425095,995.45127383109,905.6248319999999
1533058344.427,1054.0056364423685,1605.6609324734561,988.0692473016695,1026.8260100070586,955.4979839999999
1533058344.43,998.681044090609,1593.2736252284365,1004.677263172811,1061.0514017879186,889.8731519999998
1533058344.434,966.6538415123271,1595.7500717403452,1024.0513922675418,1055.3500905781355,703.4979839999999
1533058344.438,952.0981905174311,1608.1424536708403,1018.5134975555605,1009.710393362935,651.0013439999998
1533058344.4420002,992.861168887406,1575.9283502741237,1057.2617557450224,992.5947767188114,480.3724799999998
1533058344.446,1074.3811626404674,1566.0174895410128,1071.1036583925743,1046.7922822560736,601.1228159999998
1533058344.45,1016.1525956739949,1561.0595218317198,1071.1036583925743,1066.7585545050888,769.1228159999998
1533058344.454,908.4193115589661,1553.625107610518,1048.9577478094516,1023.9753544021669,1021.1228159999998
1533058344.458,879.3080095691741,1558.5830753198109,990.835360525259,981.1863127918581,1333.500672
1533058344.4620001,952.0981905174311,1551.148661098609,985.3031340780801,989.7441211139198,1007.9999999999998
1533058344.466,1039.444022460584,1553.625107610518,1046.1916345858622,1041.0851295389034,973.8731519999998
1533058344.4689999,1027.7983090672894,1563.5359683436286,1062.7996504570037,1046.7922822560736,805.8731519999998
1533058344.4729998,952.0981905174311,1551.148661098609,1079.4019980633427,1029.67666561195,433.12281599999983
1533058344.4770002,908.4193115589661,1551.148661098609,1112.6180298056256,1006.8597377580434,648.3724799999998
1533058344.481,960.8339663091241,1548.6722145867002,1143.0622800595165,981.1863127918581,923.9999999999998
1533058344.485,1074.3811626404674,1558.5830753198109,1167.9686356014263,1012.5610489678265,874.1214719999998
1533058344.4889998,1048.179798252277,1561.0595218317198,1176.272643536997,1026.8260100070586,679.8758399999998
1533058344.4929998,966.6538415123271,1541.2378003654983,1223.3249096620298,1001.1525850408732,540.7503359999998
1533058344.4970002,937.5365765356466,1543.714246877407,1206.716893790888,992.5947767188114,866.2510079999998
1533058344.5010002,975.38961730402,1548.6722145867002,1126.4542641883752,984.0428099041367,1031.6221439999997
1533058344.505,1126.7958173906254,1518.9345577018923,1104.3140218700548,1021.1188572898883,971.2496639999998
1533058344.5089998,1135.5256301954298,1511.5052181661658,1090.4777874873052,1066.7585545050888,1068.3724799999998
1533058344.512,1027.7983090672894,1531.3269396323874,1057.2617557450224,1052.4935934658567,1049.9973119999997
1533058344.516,1004.5068822807006,1528.8454184350032,1021.2852790439524,1041.0851295389034,952.8744959999998
1533058344.52,998.681044090609,1501.5892827475798,1015.7473843319711,995.45127383109,808.4966399999998
1533058344.524,1065.6513498356628,1504.070803944964,1060.0278689686118,1015.4175460801051,640.4966399999998
1533058344.5279999,1120.9699792005338,1504.070803944964,1040.6594081386834,1081.0176740369336,1189.1228159999998
1533058344.532,1097.6785524139448,1513.9816646780746,974.2330129189199,1089.5754823589955,1215.3738239999998
1533058344.536,1036.5340848589824,1536.2798326562051,927.1807467938875,1075.3163628271504,1000.1241599999998
1533058344.54,984.1253930957131,1504.070803944964,880.128480668855,1009.710393362935,1241.6248319999997
1533058344.544,1062.735449247173,1494.159943211853,880.128480668855,1012.5610489678265,1076.24832
1533058344.5479999,1147.1773065756129,1513.9816646780746,877.3623674452656,1098.1332906810571,847.8758399999998
1533058344.552,1077.2970632289573,1521.4160788992765,833.0762145438225,1095.2826350761657,769.1228159999998
1533058344.555,1001.5909816922104,1523.8925254111855,822.0060933846624,1049.6429378609653,708.7503359999998
1533058344.559,975.38961730402,1531.3269396323874,783.2578351952006,1032.5273212168415,556.4966399999998
1533058344.563,1036.5340848589824,1553.625107610518,794.3336246191633,1072.4598657148717,399.00134399999985
1533058344.5670002,1112.2342034088408,1546.190693389316,833.0762145438225,1115.2430658177936,611.6221439999998
1533058344.571,1045.2698606506754,1523.8925254111855,835.8479960322144,1100.9839462859488,1034.2510079999997
1533058344.575,987.0353306973145,1528.8454184350032,835.8479960322144,1075.3163628271504,787.4979839999999
1533058344.579,995.7711064890075,1523.8925254111855,833.0762145438225,1038.234473934012,530.2510079999998
1533058344.583,1054.0056364423685,1518.9345577018923,888.4324886044258,1075.3163628271504,685.1228159999998
1533058344.5870001,1106.414328205638,1548.6722145867002,968.6951182069387,1109.5417546080105,800.6261759999998
1533058344.591,1054.0056364423685,1568.4939360529218,1015.7473843319711,1098.1332906810571,629.9973119999999
1533058344.5939999,981.2154554941116,1553.625107610518,999.1393684608297,1069.6092101099803,813.7489919999998
1533058344.5979998,957.9180657206341,1538.7613538535893,913.3445124111379,1012.5610489678265,779.6221439999998
1533058344.6020002,998.681044090609,1541.2378003654983,924.4146335702981,989.7441211139198,598.4993279999998
1533058344.606,1062.735449247173,1533.8033861442962,971.4668996953305,1023.9753544021669,666.7476479999998
1533058344.61,1027.7983090672894,1516.4581111899836,982.5370208544907,1063.90205739281,627.3738239999998
1533058344.6139998,969.5637791139285,1494.159943211853,963.1628917597599,1069.6092101099803,839.9999999999998
1533058344.6179998,937.5365765356466,1481.767561281358,891.1986018280152,1052.4935934658567,1133.9973119999997
1533058344.6220002,934.6266389340451,1484.244007793267,946.5548758886184,1041.0851295389034,1139.2496639999997
1533058344.6260002,998.681044090609,1476.8146682575402,1021.2852790439524,1063.90205739281,1165.500672
1533058344.63,972.4796797024186,1464.4222863270454,1035.121513426702,1055.3500905781355,884.6261759999998
1533058344.6339998,911.3352121474561,1471.8567005482473,1073.8697716161637,1046.7922822560736,819.0013439999998
1533058344.637,882.2179471707757,1489.20197550256,1065.5657636805931,1046.7922822560736,989.6248319999999
1533058344.641,920.0709879391492,1504.070803944964,1071.1036583925743,1032.5273212168415,1036.874496
1533058344.645,1013.2426580723935,1496.636389723762,1068.3318769041825,1061.0514017879186,1126.1214719999998
1533058344.649,987.0353306973145,1486.7255289906511,1062.7996504570037,1103.8346018908403,1013.2469759999998
1533058344.6529999,937.5365765356466,1476.8146682575402,1051.7295292978436,1095.2826350761657,745.5006719999998
1533058344.657,905.5093739573647,1466.8987328389542,988.0692473016695,1012.5610489678265,682.4993279999998
1533058344.661,908.4193115589661,1454.5114255939345,993.6071420136509,978.3356571869665,719.2496639999998
1533058344.665,995.7711064890075,1459.4693933032277,1024.0513922675418,1004.0090821531518,997.5006719999998
1533058344.669,1048.179798252277,1474.333147060156,1004.677263172811,1018.2682016849967,1168.1241599999998
1533058344.6729999,989.9452682989161,1484.244007793267,965.9290049833493,1012.5610489678265,866.2510079999998
1533058344.677,890.9537229624686,1491.6784220144689,863.526133062516,998.3019294359816,790.1214719999998
1533058344.68,867.6622961758798,1504.070803944964,841.3802224793933,964.0765376551216,816.3724799999998
1533058344.684,955.0081281190326,1499.1128362356708,866.2922462861054,949.8115766158896,989.6248319999999
1533058344.688,1007.416819882302,1479.2911147694492,857.9882383505347,975.4850015820749,887.2496639999998
1533058344.6920002,963.7439039107255,1476.8146682575402,855.2221251269453,969.7778488649047,776.9986559999998
1533058344.696,940.4524771241366,1494.159943211853,869.0583595096949,955.5187293330598,761.2469759999998
1533058344.7,937.5365765356466,1494.159943211853,899.502609763586,946.960921010998,414.74764799999986
1533058344.704,1004.5068822807006,1489.20197550256,891.1986018280152,932.695959971766,645.7489919999998
1533058344.708,1048.179798252277,1506.5472504568727,893.970383316407,955.5187293330598,1223.2496639999997
1533058344.7120001,998.681044090609,1523.8925254111855,941.016981176637,1006.8597377580434,1189.1228159999998
1533058344.716,957.9180657206341,1499.1128362356708,916.1106256347274,1015.4175460801051,1013.2469759999998
1533058344.7189999,888.0378223739787,1509.0236969687817,885.6663753808364,992.5947767188114,853.1228159999998
1533058344.7229998,946.2723523273396,1551.148661098609,902.2687229871754,1001.1525850408732,1026.3751679999998
1533058344.7270002,1030.708246668891,1568.4939360529218,877.3623674452656,1055.3500905781355,1105.1228159999998
1533058344.731,1001.5909816922104,1573.4519037622147,849.684230414964,1078.1670184320421,871.4979839999999
1533058344.735,972.4796797024186,1556.106628807902,835.8479960322144,1046.7922822560736,1078.8718079999999
1533058344.7389998,925.8908631423521,1546.190693389316,822.0060933846624,1026.8260100070586,987.0013439999998
1533058344.7429998,984.1253930957131,1573.4519037622147,857.9882383505347,1041.0851295389034,918.7476479999998
1533058344.7470002,1065.6513498356628,1575.9283502741237,885.6663753808364,1063.90205739281,929.2469759999998
1533058344.7510002,1016.1525956739949,1570.9703825648305,874.5962542216762,1058.200746183027,955.4979839999999
1533058344.755,972.4796797024186,1580.8812432979414,846.9181171913746,1038.234473934012,1078.8718079999999
1533058344.7589998,934.6266389340451,1573.4519037622147,819.2399801610729,995.45127383109,1162.8718079999999
1533058344.762,975.38961730402,1551.148661098609,860.7543515741241,958.3693849379514,1155.0013439999998
1533058344.766,1080.2070008305589,1526.3689719230943,946.5548758886184,1012.5610489678265,719.2496639999998
1533058344.77,1059.8255116455714,1516.4581111899836,943.7887626650289,1069.6092101099803,661.5006719999998
1533058344.774,987.0353306973145,1516.4581111899836,902.2687229871754,1046.7922822560736,527.6221439999998
1533058344.7779999,920.0709879391492,1509.0236969687817,877.3623674452656,1006.8597377580434,635.2496639999998
1533058344.782,917.1550873506591,1511.5052181661658,880.128480668855,992.5947767188114,1091.9999999999998
1533058344.786,1024.888371465688,1516.4581111899836,891.1986018280152,1012.5610489678265,1044.7503359999998
1533058344.79,1004.5068822807006,1491.6784220144689,921.6428520819062,1041.0851295389034,1049.9973119999997
1533058344.794,908.4193115589661,1476.8146682575402,905.0405044755672,1038.234473934012,1068.3724799999998
1533058344.7979999,893.8636605640702,1471.8567005482473,810.9359722255023,992.5947767188114,950.2510079999998
1533058344.801,934.6266389340451,1471.8567005482473,808.1698590019129,941.2537682938279,808.4966399999998
1533058344.805,1010.3267574839035,1471.8567005482473,882.8945938924445,955.5187293330598,837.3765119999998
1533058344.809,1019.0625332755965,1469.3802540363383,902.2687229871754,1004.0090821531518,755.9999999999998
1533058344.813,966.6538415123271,1476.8146682575402,913.3445124111379,1009.710393362935,816.3724799999998
1533058344.8170002,957.9180657206341,1466.8987328389542,913.3445124111379,975.4850015820749,758.6234879999998
1533058344.821,987.0353306973145,1469.3802540363383,935.4847547294582,952.6622322207811,797.9973119999999
1533058344.825,1051.0897358538784,1466.8987328389542,952.0927706005997,978.3356571869665,947.6221439999998
1533058344.829,1068.5612874372644,1471.8567005482473,990.835360525259,995.45127383109,748.1241599999998
1533058344.833,992.861168887406,1479.2911147694492,993.6071420136509,966.9271932600132,797.9973119999999
1533058344.8370001,920.0709879391492,1459.4693933032277,968.6951182069387,915.5861848350296,918.7476479999998
1533058344.841,925.8908631423521,1464.4222863270454,974.2330129189199,898.4705681909061,685.1228159999998
1533058344.8439999,981.2154554941116,1489.20197550256,971.4668996953305,909.8790321178593,333.3765119999999
1533058344.8479998,989.9452682989161,1484.244007793267,963.1628917597599,918.4368404399212,934.4993279999998
1533058344.8520002,955.0081281190326,1479.2911147694492,924.4146335702981,946.960921010998,1160.24832
1533058344.856,902.5994363557631,1469.3802540363383,833.0762145438225,932.695959971766,826.8718079999998
1533058344.86,873.4821713790827,1444.6005648608236,810.9359722255023,887.0621042639527,942.3751679999998
1533058344.8639998,946.2723523273396,1449.5585325701168,893.970383316407,935.5524570840447,887.2496639999998
1533058344.8679998,963.7439039107255,1447.0770113727326,916.1106256347274,986.8934655090283,771.7463039999998
1533058344.8720002,888.0378223739787,1434.689704127713,935.4847547294582,1009.710393362935,766.4993279999998
1533058344.8760002,850.1907445924937,1442.1241183489149,927.1807467938875,998.3019294359816,795.3738239999998
1533058344.88,873.4821713790827,1439.6425971515307,869.0583595096949,964.0765376551216,871.4979839999999
1533058344.8839998,934.6266389340451,1442.1241183489149,907.8066176991566,966.9271932600132,905.6248319999999
1533058344.887,995.7711064890075,1461.9458398151364,965.9290049833493,1009.710393362935,1073.6248319999997
1533058344.891,922.9809255407506,1461.9458398151364,985.3031340780801,1035.3838183291202,1149.7489919999998
1533058344.895,829.8092554075063,1449.5585325701168,999.1393684608297,1006.8597377580434,842.6234879999998
1533058344.899,829.8092554075063,1449.5585325701168,935.4847547294582,952.6622322207811,889.8731519999998
1533058344.9029999,931.7167013324436,1444.6005648608236,943.7887626650289,952.6622322207811,698.2510079999998
1533058344.907,987.0353306973145,1456.9878721058435,985.3031340780801,1021.1188572898883,674.6234879999998
1533058344.911,902.5994363557631,1494.159943211853,999.1393684608297,1075.3163628271504,1023.7463039999998
1533058344.915,835.6291306107092,1501.5892827475798,996.3732552372403,1029.67666561195,671.9999999999998
1533058344.919,832.7191930091077,1496.636389723762,954.8588838241891,961.220040542843,616.8744959999998
1533058344.9229999,917.1550873506591,1499.1128362356708,974.2330129189199,966.9271932600132,748.1241599999998
1533058344.926,972.4796797024186,1496.636389723762,999.1393684608297,1018.2682016849967,784.8744959999998
1533058344.93,928.8008007439536,1499.1128362356708,985.3031340780801,1006.8597377580434,708.7503359999998
1533058344.934,876.3921089806842,1504.070803944964,996.3732552372403,958.3693849379514,601.1228159999998
1533058344.938,806.5178286209173,1479.2911147694492,976.9991261425095,1012.5610489678265,483.0013439999998
1533058344.9420002,821.0734796158133,1491.6784220144689,957.6249970477785,992.5947767188114,868.8744959999998
1533058344.946,981.2154554941116,1538.7613538535893,957.6249970477785,964.0765376551216,1231.1255039999999
1533058344.95,995.7711064890075,1566.0174895410128,913.3445124111379,1026.8260100070586,690.3751679999998
1533058344.954,995.7711064890075,1568.4939360529218,893.970383316407,1075.3163628271504,543.3738239999998
1533058344.958,992.861168887406,1566.0174895410128,905.0405044755672,1029.67666561195,931.8758399999998
1533058344.9620001,920.0709879391492,1556.106628807902,949.3209891122078,984.0428099041367,984.3724799999998
1533058344.966,972.4796797024186,1541.2378003654983,990.835360525259,1001.1525850408732,889.8731519999998
1533058344.9689999,1036.5340848589824,1541.2378003654983,1040.6594081386834,1041.0851295389034,1144.4966399999998
1533058344.9729998,1004.5068822807006,1541.2378003654983,1026.8175054911312,1078.1670184320421,1110.3751679999998
1533058344.9770002,922.9809255407506,1533.8033861442962,952.0927706005997,1049.6429378609653,1123.4979839999999
1533058344.981,922.9809255407506,1528.8454184350032,941.016981176637,1012.5610489678265,753.3711359999999
1533058344.985,1024.888371465688,1536.2798326562051,1010.2094896199899,1029.67666561195,687.7463039999998
1533058344.9889998,1097.6785524139448,1533.8033861442962,1060.0278689686118,1035.3838183291202,1084.1241599999998
1533058344.9929998,1077.2970632289573,1523.8925254111855,1040.6594081386834,1023.9753544021669,884.6261759999998
1533058344.9970002,966.6538415123271,1494.159943211853,1001.9111499492216,1004.0090821531518,627.3738239999998
1533058345.0010002,899.6894987541617,1484.244007793267,999.1393684608297,986.8934655090283,275.6221439999999
1533058345.005,943.3624147257381,1499.1128362356708,1018.5134975555605,975.4850015820749,417.37113599999986
1533058345.0089998,1045.2698606506754,1523.8925254111855,996.3732552372403,986.8934655090283,839.9999999999998
1533058345.012,1010.3267574839035,1523.8925254111855,1007.4433763964005,1018.2682016849967,897.7489919999998
1533058345.016,899.6894987541617,1496.636389723762,1007.4433763964005,1006.8597377580434,682.4993279999998
1533058345.02,908.4193115589661,1511.5052181661658,960.391110271368,941.2537682938279,753.3711359999999
1533058345.024,1021.972470877198,1531.3269396323874,996.3732552372403,966.9271932600132,918.7476479999998
1533058345.0279999,1100.5884900155463,1516.4581111899836,993.6071420136509,1015.4175460801051,955.4979839999999
1533058345.032,955.0081281190326,1496.636389723762,990.835360525259,1006.8597377580434,1015.8758399999998
1533058345.036,861.8364579857882,1484.244007793267,1071.1036583925743,1018.2682016849967,1099.8758399999997
1533058345.04,928.8008007439536,1484.244007793267,1048.9577478094516,1006.8597377580434,1015.8758399999998
1533058345.044,1001.5909816922104,1486.7255289906511,1073.8697716161637,1066.7585545050888,627.3738239999998
1533058345.0479999,1036.5340848589824,1474.333147060156,1109.8519165820362,1138.0658351790873,703.4979839999999
1533058345.051,1013.2426580723935,1481.767561281358,1084.9398927753239,1098.1332906810571,839.9999999999998
1533058345.055,917.1550873506591,1506.5472504568727,1060.0278689686118,1100.9839462859488,926.6234879999998
1533058345.059,856.0106197956967,1509.0236969687817,1015.7473843319711,1078.1670184320421,1057.873152
1533058345.063,952.0981905174311,1496.636389723762,1021.2852790439524,1032.5273212168415,853.1228159999998
1533058345.0670002,1091.8527142238534,1481.767561281358,1073.8697716161637,1043.9357851437949,635.2496639999998
1533058345.071,1007.416819882302,1484.244007793267,1062.7996504570037,986.8934655090283,399.00134399999985
1533058345.075,893.8636605640702,1484.244007793267,1054.495642521433,998.3019294359816,167.99999999999983
1533058345.079,928.8008007439536,1481.767561281358,1037.8876266502914,1041.0851295389034,543.3738239999998
1533058345.083,917.1550873506591,1481.767561281358,1043.4255213622728,1004.0090821531518,1036.874496
1533058345.0870001,957.9180657206341,1474.333147060156,1048.9577478094516,1035.3838183291202,1110.3751679999998
1533058345.091,949.182289928941,1476.8146682575402,1057.2617557450224,1032.5273212168415,1028.9986559999998
1533058345.0939999,856.0106197956967,1486.7255289906511,1062.7996504570037,918.4368404399212,787.4979839999999
1533058345.0979998,870.5722337774812,1486.7255289906511,949.3209891122078,872.8029847321078,860.9986559999998
1533058345.1020002,914.2451497490576,1491.6784220144689,932.7186415058688,844.2789041610309,1139.2496639999997
1533058345.106,925.8908631423521,1484.244007793267,996.3732552372403,864.245176410046,1094.6234879999997
1533058345.11,949.182289928941,1491.6784220144689,954.8588838241891,884.2114486590611,950.2510079999998
1533058345.1139998,914.2451497490576,1504.070803944964,949.3209891122078,961.220040542843,934.4993279999998
