timestamps,TP9,AF7,AF8,TP10,Right AUX
1533058130.4720001,981.5715858143843,526.6970730195279,671.9978154582336,1001.9291467298888,819.5763918624219
1533058130.476,1044.4951542323283,517.6212195013949,501.33048996151047,988.4326042658366,528.2311820997182
1533058130.48,1126.2906386748637,544.8487800557942,538.6643087485696,1008.6756907361067,770.5653087440128
1533058130.484,1123.1463931917635,526.6970730195279,709.3316342452929,1045.783409996114,996.5661252900233
1533058130.488,1066.51775886601,581.1893902493026,650.6657651097472,1050.8441816136815,1056.4679406112145
1533058130.492,1031.9117291739376,572.0949386706815,575.9981275356288,1023.8545511371933,1051.0197863039343
1533058130.496,1075.9569384413005,563.0190851525484,544.0055133673151,1005.3006915071898,882.2050725431425
1533058130.4989998,1176.630782034417,653.8334145153434,565.3375637158015,1006.9864638958402,974.7790844726806
1533058130.5029998,1204.9418776342989,717.4015852632511,698.6710704254655,1020.4830063598923,1002.0087031855252
1533058130.5070002,1138.8740637332546,780.9697560111589,730.6636845937793,1027.2295503661103,642.5922348465989
1533058130.5110002,1094.8288544658917,699.231280166497,602.6713825028608,1003.6149191185392,628.9802136960657
1533058130.515,1101.1237885580822,608.4169508037019,538.6643087485696,980.0002878709681,634.4227915915677
1533058130.519,1179.7750275175172,608.4169508037019,586.669614064288,1017.1080071309752,645.3135237943499
1533058130.5229998,1236.403661843271,699.231280166497,714.6728388640382,1049.1549547734148,852.2541648825468
1533058130.5270002,1173.480093425327,762.7994509144046,608.0016644127744,1042.4084107671968,1018.3475896955877
1533058130.5310001,1120.0021477086634,817.2917681441793,485.3287215229377,1047.4691823847643,1037.4077651534012
1533058130.535,1110.5629681333728,762.7994509144046,565.3375637158015,1032.2903219836778,702.4940501677902
1533058130.5379999,1230.1087277510806,753.7235973962715,586.669614064288,1067.7122688550344,737.8931121356661
1533058130.542,1293.0322961690247,880.8599388920869,597.3301778841153,1087.9519008736886,923.0467124065204
1533058130.546,1167.1916024591264,917.1819510251074,613.331946322688,1067.7122688550344,1045.5772084084324
1533058130.55,1079.1011839244006,844.5379267590665,640.0052012899199,1093.0126724912561,759.6745765412306
1533058130.554,1050.7836451985288,744.6477438781384,544.0055133673151,1074.4588128612525,612.6413271860032
1533058130.5579998,1132.5855727670541,826.3676216623123,490.66992614168316,1082.891129256121,702.4940501677902
1533058130.562,1220.67599130178,971.674268254882,629.3337147612608,1118.3130761274776,672.5431425071946
1533058130.566,1148.3132433085452,1007.9962803879024,682.6693019868927,1118.3130761274776,563.630244067594
1533058130.57,1063.3670702569198,926.2578045432405,597.3301778841153,1118.3130761274776,675.2644314549456
1533058130.574,994.1550108727752,826.3676216623123,501.33048996151047,1113.2523045099101,786.9041952540753
1533058130.5779998,1041.3444656232382,717.4015852632511,400.000520128992,1145.2992521523497,620.8107704410344
1533058130.581,1189.2142070928078,708.325731745118,437.3343389160512,1158.7957946164017,667.1005646116926
1533058130.585,1157.7524228838358,717.4015852632511,490.66992614168316,1167.2281110112704,727.0023799328839
1533058130.589,1053.934333807619,644.7575609972102,453.33610735462395,1170.6031102401873,765.1227308485109
1533058130.593,1016.1776155064565,599.3410972855688,437.3343389160512,1130.1203917512632,539.1219143025004
1533058130.5970001,1072.8062498322104,535.7729265376611,357.3364194320191,1109.880759732609,539.1219143025004
1533058130.601,1167.1916024591264,463.12890227162023,367.9969832518465,1128.4346193626127,849.5272995230176
1533058130.605,1138.8740637332546,472.20475578975334,602.6713825028608,1153.7350229988342,969.3365065771785
1533058130.609,1075.9569384413005,499.4509144046407,629.3337147612608,1143.6134797636992,917.6041345110184
1533058130.613,1044.4951542323283,553.9432316344153,469.3378757931967,1126.745392522346,721.5542256256037
1533058130.617,1110.5629681333728,608.4169508037019,437.3343389160512,1135.1811633688308,852.2541648825468
1533058130.621,1204.9418776342989,508.5267679227738,554.6660771871424,1165.5423386226198,865.8661860330801
1533058130.6239998,1182.9192730006175,499.4509144046407,677.3390200769791,1200.9642854939764,1102.7577347818726
1533058130.6279998,1097.9795430749818,490.3750608865075,591.9998959742016,1206.025057111544,1285.1900461049759
1533058130.6320002,1035.0559746570377,390.48487800557945,437.3343389160512,1162.1673393937028,893.0958047459247
1533058130.6360002,1085.389674890601,390.48487800557945,448.0058254447103,1145.2992521523497,996.5661252900233
1533058130.64,1189.2142070928078,363.2387193906921,517.3322584000832,1160.4815670050523,773.292174103542
1533058130.644,1204.9418776342989,481.2992073683744,677.3390200769791,1168.9138833999207,623.5320593887855
1533058130.6479998,1167.1916024591264,544.8487800557942,704.0013523353791,1157.106567776135,618.0894814932834
1533058130.6520002,1104.2680340411823,444.95859717486604,575.9981275356288,1133.4953909801802,882.2050725431425
1533058130.6560001,1104.2680340411823,481.2992073683744,458.6663892645376,1118.3130761274776,882.2050725431425
1533058130.66,1173.480093425327,544.8487800557942,517.3322584000832,1133.4953909801802,280.45447755992154
1533058130.6629999,1186.0635184837176,671.9851215516096,661.3372516384063,1130.1203917512632,530.9580474592474
1533058130.667,1132.5855727670541,708.325731745118,559.996359097056,1104.8199881150415,697.0514722722883
1533058130.671,1069.66200434911,644.7575609972102,517.3322584000832,1098.0734441088237,713.3847823705725
1533058130.675,1101.1237885580822,662.9092680334766,528.0037449287423,1099.759216497474,539.1219143025004
1533058130.679,1201.7976321511987,681.0795731302308,565.3375637158015,1108.1915328923426,677.9912968144748
1533058130.6829998,1248.9870869016618,681.0795731302308,682.6693019868927,1140.2419349863983,936.6643099688318
1533058130.687,1211.2368117264893,681.0795731302308,677.3390200769791,1157.106567776135,898.543959053205
1533058130.691,1145.1689978254449,681.0795731302308,608.0016644127744,1119.9988485161282,677.9912968144748
1533058130.695,1097.9795430749818,635.6631094185892,586.669614064288,1084.5769016447714,558.1820897603138
1533058130.699,1176.630782034417,662.9092680334766,597.3301778841153,1084.5769016447714,648.0403891538791
1533058130.7029998,1226.9644822679804,762.7994509144046,645.3354831998336,1093.0126724912561,560.9089551198431
1533058130.706,1148.3132433085452,808.2159146260461,650.6657651097472,1098.0734441088237,710.6634934228215
1533058130.71,1091.6846089827916,762.7994509144046,528.0037449287423,1093.0126724912561,620.8107704410344
1533058130.714,1057.0785792907193,735.5532922995174,512.0019764901696,1077.8303576385536,642.5922348465989
1533058130.718,1142.0247523423448,762.7994509144046,517.3322584000832,1089.637673262339,653.4829670493812
1533058130.7220001,1258.4262664769524,790.0456095292919,570.6678456257151,1111.5665321212596,863.144897085329
1533058130.726,1179.7750275175172,799.1214630474251,559.996359097056,1094.6984448799064,1116.369755932406
1533058130.73,1075.9569384413005,835.4620732409335,496.0002080515968,1066.023042014768,912.1559802037382
1533058130.734,1041.3444656232382,862.6896337953327,533.334026838656,1074.4588128612525,748.7838443384484
1533058130.738,1094.8288544658917,790.0456095292919,479.998439613024,1066.023042014768,737.8931121356661
1533058130.742,1160.896668366936,762.7994509144046,538.6643087485696,1042.4084107671968,484.66825328858926
1533058130.746,1091.6846089827916,771.8939024930257,704.0013523353791,1066.023042014768,705.2209155273194
1533058130.7489998,1022.472549598647,681.0795731302308,655.9960470196609,1069.398041243685,789.6254842018262
1533058130.7529998,1013.0333700233564,626.5872559004561,517.3322584000832,1022.1687787485428,511.89787200143394
1533058130.7570002,1094.8288544658917,608.4169508037019,479.998439613024,1008.6756907361067,530.9580474592474
1533058130.7610002,1179.7750275175172,563.0190851525484,565.3375637158015,1049.1549547734148,446.54790237296237
1533058130.765,1107.4122795242824,572.0949386706815,624.0034328513472,1057.5907256198993,928.4948667138007
1533058130.769,1053.934333807619,563.0190851525484,496.0002080515968,1055.904953231249,1162.659550103064
1533058130.7729998,1063.3670702569198,581.1893902493026,421.33257047747844,1052.5299540023318,874.0356292881113
1533058130.7770002,1079.1011839244006,563.0190851525484,458.6663892645376,1047.4691823847643,789.6254842018262
1533058130.7810001,1170.3358479422266,508.5267679227738,517.3322584000832,1066.023042014768,882.2050725431425
1533058130.785,1164.0409138500363,544.8487800557942,671.9978154582336,1079.5161300272039,795.0736385091064
1533058130.7879999,1057.0785792907193,526.6970730195279,655.9960470196609,1055.904953231249,653.4829670493812
1533058130.792,1009.8891245402561,526.6970730195279,496.0002080515968,1020.4830063598923,795.0736385091064
1533058130.796,1038.200220140138,490.3750608865075,437.3343389160512,1023.8545511371933,795.0736385091064
1533058130.8,1126.2906386748637,444.95859717486604,549.3357952772287,1045.783409996114,786.9041952540753
1533058130.804,1132.5855727670541,563.0190851525484,634.6639966711745,1039.036865989896,1004.7355685450544
1533058130.8079998,1047.6393997154287,599.3410972855688,575.9981275356288,1027.2295503661103,1018.3475896955877
1533058130.812,997.3056994818653,553.9432316344153,479.998439613024,1017.1080071309752,871.3143403403603
1533058130.816,1057.0785792907193,617.511402382323,458.6663892645376,1015.4222347423248,615.3626161337543
1533058130.82,1164.0409138500363,635.6631094185892,549.3357952772287,1022.1687787485428,511.89787200143394
1533058130.824,1179.7750275175172,653.8334145153434,613.331946322688,1050.8441816136815,691.603317965008
1533058130.8279998,1110.5629681333728,753.7235973962715,549.3357952772287,1052.5299540023318,993.839259930494
1533058130.831,1047.6393997154287,808.2159146260461,463.99667117445125,1015.4222347423248,1075.528116069028
1533058130.835,1060.2228247738194,817.2917681441793,474.66815770311035,1017.1080071309752,694.324606912759
1533058130.839,1208.0861231173992,817.2917681441793,490.66992614168316,1039.036865989896,618.0894814932834
1533058130.843,1242.6921528094715,853.6137802771997,591.9998959742016,1047.4691823847643,999.2874142377742
1533058130.8470001,1154.6081774007355,808.2159146260461,602.6713825028608,1055.904953231249,1078.249405016779
1533058130.851,1072.8062498322104,653.8334145153434,522.6625403099969,1033.9760943723284,814.1338139669199
1533058130.855,1044.4951542323283,626.5872559004561,517.3322584000832,1017.1080071309752,748.7838443384484
1533058130.859,1157.7524228838358,699.231280166497,608.0016644127744,1040.7226383785464,827.7458351174532
1533058130.863,1192.3584525759081,780.9697560111589,698.6710704254655,1054.2157263909824,765.1227308485109
1533058130.867,1135.7298182501543,762.7994509144046,608.0016644127744,1047.4691823847643,596.3024406759407
1533058130.871,1085.389674890601,726.4774387813842,559.996359097056,1055.904953231249,422.0395726078687
1533058130.8739998,1060.2228247738194,780.9697560111589,591.9998959742016,1044.0976376074634,623.5320593887855
1533058130.8779998,1160.896668366936,780.9697560111589,591.9998959742016,1047.4691823847643,803.2430817641377
1533058130.8820002,1211.2368117264893,699.231280166497,629.3337147612608,1072.7695860209858,683.4338747099767
1533058130.8860002,1148.3132433085452,681.0795731302308,682.6693019868927,1072.7695860209858,844.0847216275156
1533058130.89,1091.6846089827916,653.8334145153434,624.0034328513472,1052.5299540023318,808.6856596596397
1533058130.894,1047.6393997154287,626.5872559004561,581.3393321543742,1028.9153227547608,574.5209762703763
1533058130.8979998,1142.0247523423448,671.9851215516096,565.3375637158015,1028.9153227547608,865.8661860330801
1533058130.9020002,1211.2368117264893,726.4774387813842,597.3301778841153,1049.1549547734148,1162.659550103064
1533058130.9060001,1120.0021477086634,790.0456095292919,645.3354831998336,1052.5299540023318,942.1068878643339
1533058130.91,1050.7836451985288,799.1214630474251,522.6625403099969,1040.7226383785464,800.5162164046085
1533058130.9129999,1000.4499449649655,708.325731745118,479.998439613024,1037.3476391496292,778.7347519990441
1533058130.917,1047.6393997154287,662.9092680334766,554.6660771871424,1037.3476391496292,645.3135237943499
1533058130.921,1145.1689978254449,753.7235973962715,720.003120773952,1047.4691823847643,767.8440197962618
1533058130.925,1151.4574887916453,762.7994509144046,778.6689899094976,1077.8303576385536,944.8281768120848
1533058130.929,1079.1011839244006,608.4169508037019,752.0066576510975,1082.891129256121,923.0467124065204
1533058130.9329998,946.965556122312,481.2992073683744,757.3369395610111,1030.6010951434112,639.8709458988478
1533058130.937,975.2830948481839,426.80689013859984,746.665453032352,1008.6756907361067,550.0182229170608
1533058130.941,1116.851459099573,444.95859717486604,858.6669093935296,1033.9760943723284,841.3634326797646
1533058130.945,1079.1011839244006,454.05304875348713,912.0024966191615,1052.5299540023318,754.2319986457286
1533058130.949,984.7158312974844,426.80689013859984,826.663372516384,1050.8441816136815,446.54790237296237
1533058130.9529998,962.6932266638031,454.05304875348713,800.001040257984,1018.7937795196257,648.0403891538791
1533058130.956,1041.3444656232382,481.2992073683744,720.003120773952,1035.661866760979,854.9754538302979
1533058130.96,1151.4574887916453,444.95859717486604,613.331946322688,1052.5299540023318,637.1496569510969
1533058130.964,1195.5026980590083,490.3750608865075,709.3316342452929,1054.2157263909824,492.8376965436205
1533058130.968,1195.5026980590083,617.511402382323,778.6689899094976,1076.144585249903,359.41646833892634
1533058130.9720001,1151.4574887916453,617.511402382323,714.6728388640382,1050.8441816136815,765.1227308485109
1533058130.976,1195.5026980590083,671.9851215516096,565.3375637158015,1037.3476391496292,895.8170936936757
1533058130.98,1283.593116593734,671.9851215516096,554.6660771871424,1069.398041243685,653.4829670493812
1533058130.984,1302.4714757443153,617.511402382323,640.0052012899199,1072.7695860209858,776.013463051293
1533058130.988,1233.2594163601707,681.0795731302308,565.3375637158015,1076.144585249903,781.456040946795
1533058130.992,1138.8740637332546,708.325731745118,549.3357952772287,1072.7695860209858,977.5059498322098
1533058130.995,1164.0409138500363,653.8334145153434,517.3322584000832,1054.2157263909824,952.9976200671161
1533058130.9989998,1293.0322961690247,653.8334145153434,586.669614064288,1066.023042014768,574.5209762703763
1533058131.0029998,1321.3498348948965,699.231280166497,661.3372516384063,1094.6984448799064,634.4227915915677
1533058131.0070002,1201.7976321511987,653.8334145153434,565.3375637158015,1096.384217268557,852.2541648825468
1533058131.0110002,1110.5629681333728,608.4169508037019,554.6660771871424,1066.023042014768,933.9374446093027
1533058131.015,1116.851459099573,608.4169508037019,570.6678456257151,1032.2903219836778,906.707825896458
1533058131.019,1208.0861231173992,644.7575609972102,533.334026838656,1032.2903219836778,912.1559802037382
1533058131.0229998,1239.5479073263712,717.4015852632511,624.0034328513472,1044.0976376074634,969.3365065771785
1533058131.0270002,1179.7750275175172,690.1554266483638,624.0034328513472,1044.0976376074634,751.5051332861993
1533058131.0310001,1097.9795430749818,681.0795731302308,463.99667117445125,1013.7364623536743,443.82661342521135
1533058131.035,1094.8288544658917,744.6477438781384,426.6628523873921,1000.2399198896221,348.5257361361441
1533058131.0379999,1170.3358479422266,753.7235973962715,528.0037449287423,1022.1687787485428,688.882029017257
1533058131.042,1204.9418776342989,708.325731745118,613.331946322688,1039.036865989896,1037.4077651534012
1533058131.046,1173.480093425327,699.231280166497,602.6713825028608,1027.2295503661103,1091.8670025790905
1533058131.05,1116.851459099573,626.5872559004561,533.334026838656,1013.7364623536743,1051.0197863039343
1533058131.054,1066.51775886601,590.2652437674357,463.99667117445125,1012.0472355134077,1061.9105185067167
1533058131.0579998,1113.707213616473,617.511402382323,394.6702382190783,1003.6149191185392,1002.0087031855252
1533058131.062,1167.1916024591264,563.0190851525484,437.3343389160512,1017.1080071309752,816.855102914671
1533058131.066,1120.0021477086634,535.7729265376611,517.3322584000832,1040.7226383785464,879.4837835953915
1533058131.07,1072.8062498322104,553.9432316344153,490.66992614168316,1017.1080071309752,814.1338139669199
1533058131.074,1063.3670702569198,626.5872559004561,453.33610735462395,1005.3006915071898,844.0847216275156
1533058131.0779998,1120.0021477086634,572.0949386706815,357.3364194320191,1003.6149191185392,912.1559802037382
1533058131.081,1186.0635184837176,608.4169508037019,367.9969832518465,1025.5437779774597,422.0395726078687
1533058131.085,1151.4574887916453,681.0795731302308,501.33048996151047,1059.2764980085499,631.7015026438166
1533058131.089,1107.4122795242824,563.0190851525484,458.6663892645376,1044.0976376074634,952.9976200671161
1533058131.093,1085.389674890601,563.0190851525484,394.6702382190783,1023.8545511371933,718.8329366778527
1533058131.0970001,1113.707213616473,454.05304875348713,421.33257047747844,1032.2903219836778,432.93030481065097
1533058131.101,1220.67599130178,372.3145729088252,506.6716945802559,1066.023042014768,509.17100664190474
1533058131.105,1179.7750275175172,390.48487800557945,554.6660771871424,1089.637673262339,852.2541648825468
1533058131.109,1047.6393997154287,308.7464021609175,463.99667117445125,1072.7695860209858,688.882029017257
1533058131.113,1069.66200434911,363.2387193906921,416.00228856756473,1054.2157263909824,977.5059498322098
1533058131.117,1176.630782034417,335.9925607758048,437.3343389160512,1071.0838136323355,1119.091044880157
1533058131.12,1173.480093425327,227.02652437674354,538.6643087485696,1062.6514972374669,756.9532875934796
1533058131.1239998,1126.2906386748637,208.85621927998932,661.3372516384063,1066.023042014768,727.0023799328839
1533058131.1279998,1094.8288544658917,245.1782314130098,687.9995838968064,1064.3372696261174,781.456040946795
1533058131.1320002,1047.6393997154287,381.39042642695836,693.32986580672,1050.8441816136815,618.0894814932834
1533058131.1360002,1063.3670702569198,426.80689013859984,618.6622282326017,1054.2157263909824,392.08866494727306
1533058131.14,1164.0409138500363,463.12890227162023,687.9995838968064,1057.5907256198993,599.02930603547
1533058131.144,1201.7976321511987,463.12890227162023,757.3369395610111,1067.7122688550344,694.324606912759
1533058131.1479998,1132.5855727670541,481.2992073683744,645.3354831998336,1071.0838136323355,735.1718231879152
1533058131.1520002,1066.51775886601,526.6970730195279,645.3354831998336,1079.5161300272039,857.6967427780488
1533058131.1560001,1116.851459099573,581.1893902493026,655.9960470196609,1064.3372696261174,751.5051332861993
1533058131.16,1208.0861231173992,662.9092680334766,698.6710704254655,1074.4588128612525,936.6643099688318
1533058131.1629999,1217.5253026926898,635.6631094185892,767.9975033808385,1099.759216497474,939.3855989165828
1533058131.167,1157.7524228838358,572.0949386706815,762.6672214709248,1082.891129256121,724.2810909851329
1533058131.171,1082.245429407501,617.511402382323,687.9995838968064,1057.5907256198993,729.7236688806349
1533058131.175,1066.51775886601,617.511402382323,608.0016644127744,1060.9622703972004,675.2644314549456
1533058131.179,1173.480093425327,544.8487800557942,602.6713825028608,1079.5161300272039,656.2098324089103
1533058131.1829998,1220.67599130178,599.3410972855688,736.0048892125247,1091.3234456509895,800.5162164046085
1533058131.187,1145.1689978254449,681.0795731302308,698.6710704254655,1094.6984448799064,628.9802136960657
1533058131.191,1097.9795430749818,644.7575609972102,528.0037449287423,1060.9622703972004,356.6951793911753
1533058131.195,1085.389674890601,553.9432316344153,512.0019764901696,1049.1549547734148,560.9089551198431
1533058131.199,1173.480093425327,572.0949386706815,474.66815770311035,1077.8303576385536,811.4125250191689
1533058131.2029998,1230.1087277510806,635.6631094185892,602.6713825028608,1091.3234456509895,746.0625553906973
1533058131.206,1129.434884157964,653.8334145153434,752.0066576510975,1101.4449888861245,713.3847823705725
1533058131.21,1053.934333807619,699.231280166497,661.3372516384063,1096.384217268557,588.1385738326877
1533058131.214,1082.245429407501,771.8939024930257,655.9960470196609,1076.144585249903,729.7236688806349
1533058131.218,1170.3358479422266,771.8939024930257,693.32986580672,1094.6984448799064,936.6643099688318
1533058131.2220001,1226.9644822679804,762.7994509144046,736.0048892125247,1111.5665321212596,928.4948667138007
1533058131.226,1182.9192730006175,753.7235973962715,767.9975033808385,1114.9380768985604,688.882029017257
1533058131.23,1129.434884157964,690.1554266483638,752.0066576510975,1101.4449888861245,713.3847823705725
1533058131.234,1079.1011839244006,608.4169508037019,730.6636845937793,1059.2764980085499,849.5272995230176
1533058131.238,1129.434884157964,608.4169508037019,682.6693019868927,1064.3372696261174,765.1227308485109
1533058131.242,1192.3584525759081,635.6631094185892,720.003120773952,1111.5665321212596,743.3412664429463
1533058131.245,1113.707213616473,681.0795731302308,741.3351711224384,1118.3130761274776,928.4948667138007
1533058131.2489998,1079.1011839244006,699.231280166497,634.6639966711745,1081.2053568674705,966.6152176294275
1533058131.2529998,1047.6393997154287,662.9092680334766,591.9998959742016,1076.144585249903,1026.5170329506188
1533058131.2570002,1075.9569384413005,644.7575609972102,496.0002080515968,1076.144585249903,691.603317965008
1533058131.2610002,1157.7524228838358,699.231280166497,591.9998959742016,1076.144585249903,509.17100664190474
1533058131.265,1123.1463931917635,717.4015852632511,752.0066576510975,1087.9519008736886,912.1559802037382
1533058131.269,1082.245429407501,717.4015852632511,624.0034328513472,1084.5769016447714,677.9912968144748
1533058131.2729998,1047.6393997154287,735.5532922995174,554.6660771871424,1077.8303576385536,569.0783983748743
1533058131.2770002,1069.66200434911,617.511402382323,533.334026838656,1060.9622703972004,443.82661342521135
1533058131.2810001,1164.0409138500363,635.6631094185892,650.6657651097472,1057.5907256198993,451.9904802684644
1533058131.285,1104.2680340411823,644.7575609972102,773.3387079995839,1067.7122688550344,800.5162164046085
1533058131.2879999,1006.7384359311659,572.0949386706815,714.6728388640382,1072.7695860209858,778.7347519990441
1533058131.292,984.7158312974844,581.1893902493026,682.6693019868927,1082.891129256121,917.6041345110184
1533058131.296,1016.1776155064565,526.6970730195279,677.3390200769791,1069.398041243685,1168.1021279985662
1533058131.3,1110.5629681333728,526.6970730195279,575.9981275356288,1077.8303576385536,1048.2984973561834
1533058131.304,1066.51775886601,526.6970730195279,629.3337147612608,1118.3130761274776,961.1670633221473
1533058131.3079998,978.4273403312841,526.6970730195279,752.0066576510975,1128.4346193626127,920.3254234587694
1533058131.312,975.2830948481839,581.1893902493026,730.6636845937793,1096.384217268557,732.4449578283859
1533058131.316,1044.4951542323283,653.8334145153434,645.3354831998336,1091.3234456509895,925.7680013542714
1533058131.32,1151.4574887916453,708.325731745118,714.6728388640382,1109.880759732609,909.4346912559872
1533058131.324,1160.896668366936,662.9092680334766,826.663372516384,1130.1203917512632,620.8107704410344
1533058131.3279998,1088.5403634996912,563.0190851525484,783.9992718194112,1152.0492506101837,691.603317965008
1533058131.331,1038.200220140138,499.4509144046407,666.66753354832,1155.4207953874848,732.4449578283859
1533058131.335,1060.2228247738194,544.8487800557942,613.331946322688,1167.2281110112704,694.324606912759
1533058131.339,1160.896668366936,690.1554266483638,650.6657651097472,1145.2992521523497,688.882029017257
1533058131.343,1176.630782034417,753.7235973962715,810.6725267866431,1131.8061641399136,688.882029017257
1533058131.3470001,1116.851459099573,671.9851215516096,842.6651409549569,1175.6638818577549,844.0847216275156
1533058131.351,1113.707213616473,635.6631094185892,709.3316342452929,1170.6031102401873,958.4457743743963
1533058131.355,1138.8740637332546,608.4169508037019,645.3354831998336,1130.1203917512632,1086.4188482718102
1533058131.359,1217.5253026926898,517.6212195013949,608.0016644127744,1146.9884789926161,746.0625553906973
1533058131.363,1248.9870869016618,563.0190851525484,640.0052012899199,1197.5892862650594,511.89787200143394
1533058131.367,1170.3358479422266,617.511402382323,608.0016644127744,1211.0823742774953,675.2644314549456
1533058131.37,1088.5403634996912,608.4169508037019,522.6625403099969,1180.7211990237063,615.3626161337543
1533058131.3739998,1101.1237885580822,635.6631094185892,442.66462082596485,1158.7957946164017,876.7569182358623
1533058131.3779998,1195.5026980590083,635.6631094185892,496.0002080515968,1172.2888826288379,1075.528116069028
1533058131.3820002,1252.1313323847621,590.2652437674357,640.0052012899199,1194.2177414877583,1037.4077651534012
1533058131.3860002,1195.5026980590083,599.3410972855688,613.331946322688,1195.9035138764089,893.0958047459247
1533058131.39,1113.707213616473,572.0949386706815,544.0055133673151,1172.2888826288379,781.456040946795
1533058131.394,1097.9795430749818,590.2652437674357,490.66992614168316,1143.6134797636992,432.93030481065097
1533058131.3979998,1186.0635184837176,644.7575609972102,479.998439613024,1160.4815670050523,555.4608008125629
1533058131.4020002,1226.9644822679804,581.1893902493026,602.6713825028608,1162.1673393937028,650.7616781016301
1533058131.4060001,1148.3132433085452,526.6970730195279,629.3337147612608,1162.1673393937028,770.5653087440128
1533058131.41,1082.245429407501,463.12890227162023,485.3287215229377,1165.5423386226198,759.6745765412306
1533058131.4129999,1047.6393997154287,454.05304875348713,453.33610735462395,1128.4346193626127,343.0775818288639
1533058131.417,1082.245429407501,381.39042642695836,442.66462082596485,1109.880759732609,215.10450793144997
1533058131.421,1192.3584525759081,399.56073152371255,533.334026838656,1114.9380768985604,490.1108311840913
1533058131.425,1157.7524228838358,535.7729265376611,693.32986580672,1135.1811633688308,805.9643707118887
1533058131.429,1041.3444656232382,490.3750608865075,591.9998959742016,1128.4346193626127,906.707825896458
1533058131.4329998,1022.472549598647,517.6212195013949,490.66992614168316,1136.866935757481,713.3847823705725
1533058131.437,1097.9795430749818,535.7729265376611,474.66815770311035,1136.866935757481,552.7395118648119
1533058131.441,1164.0409138500363,508.5267679227738,549.3357952772287,1121.6880753563946,923.0467124065204
1533058131.445,1132.5855727670541,535.7729265376611,661.3372516384063,1162.1673393937028,1078.249405016779
1533058131.449,1082.245429407501,508.5267679227738,608.0016644127744,1177.3496542464054,699.7727612200392
1533058131.4520001,1057.0785792907193,517.6212195013949,570.6678456257151,1138.5527081461316,874.0356292881113
1533058131.456,1097.9795430749818,444.95859717486604,581.3393321543742,1136.866935757481,1048.2984973561834
1533058131.46,1151.4574887916453,317.8222556790506,602.6713825028608,1163.8565662339693,1135.4299313902193
1533058131.464,1116.851459099573,345.0684142939379,629.3337147612608,1189.1569698701908,1140.8780856974995
1533058131.468,1079.1011839244006,444.95859717486604,608.0016644127744,1199.2750586537097,933.9374446093027
1533058131.4720001,1044.4951542323283,490.3750608865075,522.6625403099969,1182.410425863973,588.1385738326877
1533058131.476,1047.6393997154287,472.20475578975334,463.99667117445125,1172.2888826288379,672.5431425071946
1533058131.48,1173.480093425327,517.6212195013949,554.6660771871424,1179.0354266350557,1083.6975593240593
1533058131.484,1217.5253026926898,626.5872559004561,752.0066576510975,1195.9035138764089,1083.6975593240593
1533058131.488,1123.1463931917635,617.511402382323,687.9995838968064,1200.9642854939764,1097.3095804745924
1533058131.492,1057.0785792907193,517.6212195013949,469.3378757931967,1168.9138833999207,816.855102914671
1533058131.495,1053.934333807619,463.12890227162023,458.6663892645376,1133.4953909801802,615.3626161337543
1533058131.4989998,1151.4574887916453,463.12890227162023,575.9981275356288,1143.6134797636992,705.2209155273194
1533058131.5029998,1160.896668366936,572.0949386706815,714.6728388640382,1157.106567776135,756.9532875934796
1533058131.5070002,1050.7836451985288,553.9432316344153,730.6636845937793,1152.0492506101837,1097.3095804745924
1533058131.5110002,1003.5941904480658,544.8487800557942,618.6622282326017,1148.6742513812667,740.6144010834172
1533058131.515,997.3056994818653,581.1893902493026,565.3375637158015,1106.505760503692,642.5922348465989
1533058131.519,1085.389674890601,481.2992073683744,554.6660771871424,1121.6880753563946,825.0245461697021
1533058131.5229998,1116.851459099573,435.88274365673294,602.6713825028608,1152.0492506101837,756.9532875934796
1533058131.5270002,1050.7836451985288,454.05304875348713,677.3390200769791,1133.4953909801802,1116.369755932406
1533058131.5310001,1006.7384359311659,508.5267679227738,645.3354831998336,1143.6134797636992,936.6643099688318
1533058131.535,997.3056994818653,608.4169508037019,650.6657651097472,1123.3738477450452,743.3412664429463
1533058131.5379999,1104.2680340411823,644.7575609972102,842.6651409549569,1111.5665321212596,868.5874749808311
1533058131.542,1157.7524228838358,699.231280166497,1183.9997919484033,1153.7350229988342,977.5059498322098
1533058131.546,1075.9569384413005,726.4774387813842,1386.670654322272,1163.8565662339693,942.1068878643339
1533058131.55,1019.3283041155468,653.8334145153434,1392.0009362321855,1170.6031102401873,816.855102914671
1533058131.554,1031.9117291739376,653.8334145153434,1413.332986580672,1163.8565662339693,737.8931121356661
1533058131.5579998,1110.5629681333728,644.7575609972102,1450.6668053677313,1167.2281110112704,558.1820897603138
1533058131.562,1195.5026980590083,590.2652437674357,1578.6700301674816,1200.9642854939764,827.7458351174532
1533058131.566,1138.8740637332546,581.1893902493026,1573.3397482575679,1207.7108295001944,849.5272995230176
1533058131.57,1063.3670702569198,517.6212195013949,1472.0097784250495,1209.396601888845,552.7395118648119
1533058131.574,1047.6393997154287,454.05304875348713,1514.6738791220223,1202.650057882627,756.9532875934796
1533058131.5770001,1145.1689978254449,499.4509144046407,1562.6682617289089,1197.5892862650594,1023.7901675910897
1533058131.581,1252.1313323847621,599.3410972855688,1680.0,1243.132776371551,1010.1781464405565
1533058131.585,1186.0635184837176,590.2652437674357,1674.6697180900862,1260.0008636129041,827.7458351174532
1533058131.589,1104.2680340411823,563.0190851525484,1402.6724227608447,1233.011233136416,702.4940501677902
1533058131.593,1063.3670702569198,617.511402382323,1290.6709663996671,1185.7819706412738,626.2533483365364
1533058131.5970001,1113.707213616473,644.7575609972102,1274.6691979610946,1189.1569698701908,359.41646833892634
1533058131.601,1214.3810572095895,644.7575609972102,1296.001248309581,1206.025057111544,604.471883930972
1533058131.605,1226.9644822679804,699.231280166497,1370.6688858836992,1195.9035138764089,887.6476504386445
1533058131.609,1179.7750275175172,699.231280166497,1216.0033288255488,1219.51814512398,914.8772691514891
1533058131.613,1123.1463931917635,635.6631094185892,1082.6698221158847,1204.3358302712775,849.5272995230176
1533058131.617,1142.0247523423448,635.6631094185892,981.3398522833663,1165.5423386226198,615.3626161337543
1533058131.62,1236.403661843271,753.7235973962715,1045.3360033288257,1172.2888826288379,550.0182229170608
1533058131.6239998,1195.5026980590083,808.2159146260461,1216.0033288255488,1185.7819706412738,729.7236688806349
1533058131.6279998,1088.5403634996912,753.7235973962715,1157.337459690003,1192.5285146474919,623.5320593887855
1533058131.6320002,1079.1011839244006,735.5532922995174,1114.6733589930302,1172.2888826288379,373.02848948945956
1533058131.6360002,1094.8288544658917,717.4015852632511,1077.3395402059712,1155.4207953874848,394.8155303068022
1533058131.64,1145.1689978254449,708.325731745118,1157.337459690003,1190.8427422588413,435.65717017018017
1533058131.644,1148.3132433085452,690.1554266483638,1312.0030167481536,1231.3254607477654,778.7347519990441
1533058131.6479998,1101.1237885580822,581.1893902493026,1178.6695100384895,1233.011233136416,746.0625553906973
1533058131.6520002,1044.4951542323283,572.0949386706815,1104.0018724643712,1212.771601117762,724.2810909851329
1533058131.6560001,1025.6167950817471,599.3410972855688,1066.668053677312,1190.8427422588413,838.6365673202354
1533058131.66,1116.851459099573,581.1893902493026,1029.3342348902527,1194.2177414877583,642.5922348465989
1533058131.6629999,1167.1916024591264,599.3410972855688,1183.9997919484033,1233.011233136416,860.4236081375781
1533058131.667,1132.5855727670541,599.3410972855688,1205.3318422968896,1243.132776371551,996.5661252900233
1533058131.671,1088.5403634996912,544.8487800557942,1056.0074898574846,1231.3254607477654,688.882029017257
1533058131.675,1085.389674890601,454.05304875348713,992.0004161031936,1216.1431458950628,498.28027443912254
1533058131.679,1170.3358479422266,481.2992073683744,965.3380838447935,1217.8323727353295,672.5431425071946
1533058131.6829998,1173.480093425327,535.7729265376611,997.3306980131073,1248.1935479891185,759.6745765412306
1533058131.687,1060.2228247738194,544.8487800557942,1040.005721418912,1278.5547232429076,961.1670633221473
1533058131.691,1003.5941904480658,617.511402382323,970.6683657547071,1276.8654964026412,1031.959610846121
1533058131.695,1028.7610405648475,690.1554266483638,879.998959742016,1280.2404956315581,933.9374446093027
1533058131.699,1129.434884157964,690.1554266483638,922.6739831478206,1285.3012672491257,1075.528116069028
1533058131.7020001,1170.3358479422266,644.7575609972102,1013.33246645168,1322.4089865091328,830.4727004769824
1533058131.706,1107.4122795242824,590.2652437674357,949.3363154062207,1305.5408992677797,408.4275514573355
1533058131.71,1075.9569384413005,572.0949386706815,858.6669093935296,1285.3012672491257,536.4006253547494
1533058131.714,1101.1237885580822,581.1893902493026,800.001040257984,1303.8551268791293,819.5763918624219
1533058131.718,1154.6081774007355,563.0190851525484,837.3348590450431,1295.4193560326446,811.4125250191689
1533058131.7220001,1198.6533866680984,590.2652437674357,992.0004161031936,1324.0947588977833,795.0736385091064
1533058131.726,1135.7298182501543,599.3410972855688,938.6648288775616,1327.4697581267003,746.0625553906973
1533058131.73,1041.3444656232382,635.6631094185892,789.3404764381567,1305.5408992677797,740.6144010834172
1533058131.734,1000.4499449649655,690.1554266483638,757.3369395610111,1271.8081792366897,574.5209762703763
1533058131.738,1069.66200434911,681.0795731302308,736.0048892125247,1265.0581807788556,381.1979327444908
1533058131.742,1135.7298182501543,653.8334145153434,863.9971913034433,1293.7335836439943,765.1227308485109
1533058131.745,1091.6846089827916,635.6631094185892,863.9971913034433,1288.6728120264268,1048.2984973561834
1533058131.7489998,1063.3670702569198,644.7575609972102,698.6710704254655,1273.49395162534,765.1227308485109
1533058131.7529998,994.1550108727752,563.0190851525484,677.3390200769791,1276.8654964026412,626.2533483365364
1533058131.7570002,991.0107653896749,535.7729265376611,640.0052012899199,1276.8654964026412,982.9485277277117
1533058131.7610002,1097.9795430749818,572.0949386706815,682.6693019868927,1268.4331800077725,805.9643707118887
1533058131.765,1072.8062498322104,617.511402382323,853.336627483616,1307.2266716564302,348.5257361361441
1533058131.769,1013.0333700233564,563.0190851525484,901.3310100905024,1322.4089865091328,656.2098324089103
1533058131.7729998,994.1550108727752,499.4509144046407,789.3404764381567,1290.3620388666932,800.5162164046085
1533058131.7770002,1072.8062498322104,490.3750608865075,650.6657651097472,1298.7943552615618,691.603317965008
1533058131.7810001,1192.3584525759081,454.05304875348713,746.665453032352,1308.9158984966969,713.3847823705725
1533058131.784,1145.1689978254449,426.80689013859984,848.0063455737023,1317.3482148915652,912.1559802037382
1533058131.7879999,1041.3444656232382,381.39042642695836,752.0066576510975,1319.0339872802158,803.2430817641377
1533058131.792,994.1550108727752,381.39042642695836,704.0013523353791,1307.2266716564302,577.2422652181273
1533058131.796,1013.0333700233564,363.2387193906921,645.3354831998336,1305.5408992677797,710.6634934228215
1533058131.8,1151.4574887916453,463.12890227162023,666.66753354832,1320.7232141204822,691.603317965008
1533058131.804,1236.403661843271,508.5267679227738,741.3351711224384,1340.9628461391364,797.7949274568575
1533058131.8079998,1160.896668366936,490.3750608865075,767.9975033808385,1308.9158984966969,920.3254234587694
1533058131.812,1088.5403634996912,544.8487800557942,709.3316342452929,1263.372408390205,854.9754538302979
1533058131.816,1129.434884157964,599.3410972855688,629.3337147612608,1253.25086515507,914.8772691514891
1533058131.82,1233.2594163601707,599.3410972855688,640.0052012899199,1244.8185487602016,784.1829063063243
1533058131.824,1182.9192730006175,572.0949386706815,698.6710704254655,1229.639688359115,833.1939894247333
1533058131.8270001,1085.389674890601,608.4169508037019,671.9978154582336,1241.4470039829005,792.3523495613555
1533058131.831,1047.6393997154287,626.5872559004561,693.32986580672,1280.2404956315581,816.855102914671
1533058131.835,1035.0559746570377,544.8487800557942,624.0034328513472,1241.4470039829005,901.2652480009559
1533058131.839,1094.8288544658917,517.6212195013949,549.3357952772287,1209.396601888845,697.0514722722883
1533058131.843,1097.9795430749818,535.7729265376611,666.66753354832,1265.0581807788556,727.0023799328839
1533058131.8470001,1069.66200434911,563.0190851525484,778.6689899094976,1273.49395162534,901.2652480009559
1533058131.851,1038.200220140138,572.0949386706815,634.6639966711745,1270.118952396423,729.7236688806349
1533058131.855,1013.0333700233564,553.9432316344153,544.0055133673151,1254.9400919953366,677.9912968144748
1533058131.859,1142.0247523423448,544.8487800557942,597.3301778841153,1254.9400919953366,963.8883522698983
1533058131.863,1198.6533866680984,553.9432316344153,661.3372516384063,1283.615494860475,887.6476504386445
1533058131.867,1132.5855727670541,635.6631094185892,666.66753354832,1297.1085828729113,898.543959053205
1533058131.87,1082.245429407501,681.0795731302308,608.0016644127744,1278.5547232429076,939.3855989165828
1533058131.8739998,1050.7836451985288,635.6631094185892,565.3375637158015,1246.5043211488521,939.3855989165828
1533058131.8779998,1145.1689978254449,617.511402382323,565.3375637158015,1265.0581807788556,827.7458351174532
1533058131.8820002,1236.403661843271,708.325731745118,757.3369395610111,1302.1693544904788,993.839259930494
1533058131.8860002,1154.6081774007355,753.7235973962715,821.3330906064704,1313.9766701142644,906.707825896458
1533058131.89,1060.2228247738194,690.1554266483638,671.9978154582336,1290.3620388666932,803.2430817641377
1533058131.894,1060.2228247738194,671.9851215516096,575.9981275356288,1263.372408390205,947.5550421716141
1533058131.8979998,1138.8740637332546,635.6631094185892,469.3378757931967,1268.4331800077725,718.8329366778527
1533058131.9020002,1195.5026980590083,617.511402382323,581.3393321543742,1266.7474076191222,746.0625553906973
1533058131.9060001,1138.8740637332546,590.2652437674357,725.3334026838656,1254.9400919953366,626.2533483365364
1533058131.909,1063.3670702569198,517.6212195013949,714.6728388640382,1248.1935479891185,607.193172878723
1533058131.9129999,1022.472549598647,544.8487800557942,650.6657651097472,1221.2039175126304,1042.8503430489031
1533058131.917,1088.5403634996912,590.2652437674357,544.0055133673151,1200.9642854939764,765.1227308485109
1533058131.921,1173.480093425327,581.1893902493026,640.0052012899199,1236.386232365333,686.160740069506
1533058131.925,1101.1237885580822,572.0949386706815,687.9995838968064,1251.5650927664196,830.4727004769824
1533058131.929,1050.7836451985288,572.0949386706815,608.0016644127744,1243.132776371551,702.4940501677902
1533058131.9329998,1031.9117291739376,644.7575609972102,559.996359097056,1227.9504615188484,857.6967427780488
1533058131.937,1050.7836451985288,690.1554266483638,544.0055133673151,1204.3358302712775,963.8883522698983
1533058131.941,1151.4574887916453,717.4015852632511,661.3372516384063,1222.889689901281,952.9976200671161
1533058131.945,1126.2906386748637,626.5872559004561,709.3316342452929,1256.6258643839872,980.2272387799608
1533058131.949,1038.200220140138,544.8487800557942,736.0048892125247,1254.9400919953366,991.117970982743
1533058131.9520001,1003.5941904480658,644.7575609972102,698.6710704254655,1214.4573735064125,822.3032572219512
1533058131.956,1063.3670702569198,599.3410972855688,554.6660771871424,1209.396601888845,579.9691305776565
1533058131.96,1148.3132433085452,517.6212195013949,575.9981275356288,1217.8323727353295,446.54790237296237
1533058131.964,1120.0021477086634,581.1893902493026,650.6657651097472,1224.5789167415476,732.4449578283859
1533058131.968,1085.389674890601,544.8487800557942,645.3354831998336,1256.6258643839872,925.7680013542714
1533058131.9720001,1066.51775886601,563.0190851525484,677.3390200769791,1239.757777142634,835.9152783724844
1533058131.976,1057.0785792907193,635.6631094185892,608.0016644127744,1185.7819706412738,697.0514722722883
1533058131.98,1164.0409138500363,653.8334145153434,650.6657651097472,1179.0354266350557,724.2810909851329
1533058131.984,1204.9418776342989,708.325731745118,832.0045771351295,1189.1569698701908,756.9532875934796
1533058131.988,1110.5629681333728,671.9851215516096,762.6672214709248,1214.4573735064125,683.4338747099767
1533058131.992,1079.1011839244006,617.511402382323,645.3354831998336,1221.2039175126304,767.8440197962618
1533058131.995,1123.1463931917635,644.7575609972102,629.3337147612608,1204.3358302712775,677.9912968144748
1533058131.9989998,1208.0861231173992,671.9851215516096,655.9960470196609,1211.0823742774953,345.79887077661493
1533058132.0029998,1223.82023678488,699.231280166497,842.6651409549569,1239.757777142634,658.9311213566614
1533058132.0070002,1132.5855727670541,635.6631094185892,837.3348590450431,1219.51814512398,1070.0799617617479
1533058132.0110002,1088.5403634996912,535.7729265376611,682.6693019868927,1182.410425863973,920.3254234587694
1533058132.015,1129.434884157964,526.6970730195279,789.3404764381567,1177.3496542464054,947.5550421716141
1533058132.019,1208.0861231173992,608.4169508037019,885.3401643607615,1195.9035138764089,677.9912968144748
1533058132.0229998,1261.5705119600527,744.6477438781384,906.6722147092479,1222.889689901281,686.160740069506
1533058132.0270002,1208.0861231173992,780.9697560111589,853.336627483616,1211.0823742774953,972.0577955249296
1533058132.0310001,1113.707213616473,699.231280166497,778.6689899094976,1207.7108295001944,898.543959053205
1533058132.034,1094.8288544658917,653.8334145153434,698.6710704254655,1187.4677430299243,702.4940501677902
1533058132.0379999,1189.2142070928078,635.6631094185892,645.3354831998336,1170.6031102401873,618.0894814932834
1533058132.042,1223.82023678488,581.1893902493026,773.3387079995839,1185.7819706412738,1007.4568574928054
1533058132.046,1135.7298182501543,508.5267679227738,794.6707583480703,1195.9035138764089,1086.4188482718102
1533058132.05,1097.9795430749818,563.0190851525484,597.3301778841153,1182.410425863973,691.603317965008
1533058132.054,1082.245429407501,608.4169508037019,501.33048996151047,1155.4207953874848,596.3024406759407
1533058132.0579998,1126.2906386748637,553.9432316344153,496.0002080515968,1126.745392522346,593.5811517281898
1533058132.062,1211.2368117264893,572.0949386706815,608.0016644127744,1152.0492506101837,694.324606912759
1533058132.066,1167.1916024591264,590.2652437674357,597.3301778841153,1180.7211990237063,781.456040946795
1533058132.07,1047.6393997154287,563.0190851525484,517.3322584000832,1133.4953909801802,522.7886042042162
1533058132.074,1006.7384359311659,590.2652437674357,544.0055133673151,1104.8199881150415,675.2644314549456
1533058132.0770001,1104.2680340411823,590.2652437674357,570.6678456257151,1103.130761274775,1078.249405016779
1533058132.081,1198.6533866680984,681.0795731302308,741.3351711224384,1128.4346193626127,991.117970982743
1533058132.085,1138.8740637332546,790.0456095292919,725.3334026838656,1146.9884789926161,680.7125857622258
1533058132.089,1041.3444656232382,817.2917681441793,640.0052012899199,1125.0596201336957,539.1219143025004
1533058132.093,1009.8891245402561,853.6137802771997,714.6728388640382,1094.6984448799064,628.9802136960657
1533058132.0970001,1079.1011839244006,799.1214630474251,661.3372516384063,1093.0126724912561,536.4006253547494
1533058132.101,1189.2142070928078,762.7994509144046,682.6693019868927,1125.0596201336957,359.41646833892634
1533058132.105,1154.6081774007355,735.5532922995174,725.3334026838656,1148.6742513812667,457.4386345757446
1533058132.109,1107.4122795242824,635.6631094185892,671.9978154582336,1152.0492506101837,634.4227915915677
1533058132.113,1069.66200434911,662.9092680334766,586.669614064288,1128.4346193626127,724.2810909851329
1533058132.117,1082.245429407501,617.511402382323,522.6625403099969,1123.3738477450452,1151.7688179002819
1533058132.12,1176.630782034417,553.9432316344153,575.9981275356288,1145.2992521523497,1353.2613046811985
1533058132.1239998,1138.8740637332546,690.1554266483638,720.003120773952,1145.2992521523497,1026.5170329506188
1533058132.1279998,1091.6846089827916,735.5532922995174,698.6710704254655,1141.9277073750486,735.1718231879152
1533058132.1320002,1113.707213616473,699.231280166497,629.3337147612608,1138.5527081461316,528.2311820997182
1533058132.1360002,1186.0635184837176,744.6477438781384,597.3301778841153,1136.866935757481,604.471883930972
1533058132.14,1248.9870869016618,799.1214630474251,698.6710704254655,1123.3738477450452,677.9912968144748
1533058132.144,1201.7976321511987,780.9697560111589,816.0028086965567,1121.6880753563946,694.324606912759
1533058132.1479998,1154.6081774007355,780.9697560111589,762.6672214709248,1131.8061641399136,748.7838443384484
1533058132.1520002,1110.5629681333728,790.0456095292919,709.3316342452929,1125.0596201336957,947.5550421716141
1533058132.1560001,1113.707213616473,780.9697560111589,613.331946322688,1104.8199881150415,713.3847823705725
1533058132.159,1208.0861231173992,817.2917681441793,613.331946322688,1096.384217268557,563.630244067594
1533058132.1629999,1214.3810572095895,808.2159146260461,752.0066576510975,1133.4953909801802,759.6745765412306
1533058132.167,1148.3132433085452,771.8939024930257,752.0066576510975,1141.9277073750486,852.2541648825468
1533058132.171,1107.4122795242824,753.7235973962715,591.9998959742016,1130.1203917512632,702.4940501677902
1533058132.175,1101.1237885580822,726.4774387813842,517.3322584000832,1125.0596201336957,658.9311213566614
1533058132.179,1164.0409138500363,690.1554266483638,522.6625403099969,1104.8199881150415,694.324606912759
1533058132.1829998,1186.0635184837176,690.1554266483638,629.3337147612608,1130.1203917512632,634.4227915915677
1533058132.187,1110.5629681333728,662.9092680334766,634.6639966711745,1165.5423386226198,574.5209762703763
1533058132.191,1082.245429407501,644.7575609972102,496.0002080515968,1150.3600237699172,887.6476504386445
1533058132.195,1120.0021477086634,708.325731745118,490.66992614168316,1109.880759732609,1023.7901675910897
1533058132.199,1211.2368117264893,690.1554266483638,453.33610735462395,1125.0596201336957,609.9200382382522
1533058132.2020001,1258.4262664769524,581.1893902493026,554.6660771871424,1158.7957946164017,759.6745765412306
1533058132.206,1198.6533866680984,517.6212195013949,618.6622282326017,1155.4207953874848,893.0958047459247
1533058132.21,1189.2142070928078,535.7729265376611,496.0002080515968,1140.2419349863983,879.4837835953915
1533058132.214,1142.0247523423448,526.6970730195279,426.6628523873921,1131.8061641399136,887.6476504386445
1533058132.218,1145.1689978254449,535.7729265376611,453.33610735462395,1140.2419349863983,903.986536948707
1533058132.2220001,1208.0861231173992,508.5267679227738,533.334026838656,1160.4815670050523,825.0245461697021
1533058132.226,1157.7524228838358,463.12890227162023,485.3287215229377,1150.3600237699172,677.9912968144748
1533058132.23,1091.6846089827916,572.0949386706815,528.0037449287423,1131.8061641399136,547.2913575575317
1533058132.234,1044.4951542323283,599.3410972855688,597.3301778841153,1126.745392522346,857.6967427780488
1533058132.238,1088.5403634996912,572.0949386706815,544.0055133673151,1099.759216497474,833.1939894247333
1533058132.2410002,1157.7524228838358,644.7575609972102,661.3372516384063,1098.0734441088237,560.9089551198431
1533058132.245,1113.707213616473,653.8334145153434,661.3372516384063,1126.745392522346,865.8661860330801
1533058132.2489998,1079.1011839244006,617.511402382323,559.996359097056,1118.3130761274776,1078.249405016779
1533058132.2529998,1088.5403634996912,635.6631094185892,506.6716945802559,1094.6984448799064,969.3365065771785
1533058132.2570002,1170.3358479422266,635.6631094185892,469.3378757931967,1084.5769016447714,1086.4188482718102
1533058132.2610002,1252.1313323847621,553.9432316344153,586.669614064288,1113.2523045099101,1018.3475896955877
1533058132.265,1198.6533866680984,563.0190851525484,640.0052012899199,1131.8061641399136,669.8218535594435
1533058132.269,1132.5855727670541,517.6212195013949,544.0055133673151,1121.6880753563946,759.6745765412306
1533058132.2729998,1072.8062498322104,490.3750608865075,410.6720066576511,1103.130761274775,650.7616781016301
1533058132.2770002,1085.389674890601,572.0949386706815,442.66462082596485,1086.266128485038,413.8757057646157
1533058132.2810001,1192.3584525759081,581.1893902493026,559.996359097056,1098.0734441088237,492.8376965436205
1533058132.284,1148.3132433085452,590.2652437674357,709.3316342452929,1113.2523045099101,677.9912968144748
1533058132.2879999,1044.4951542323283,508.5267679227738,773.3387079995839,1113.2523045099101,667.1005646116926
1533058132.292,1025.6167950817471,354.162865872559,704.0013523353791,1113.2523045099101,767.8440197962618
1533058132.296,1082.245429407501,408.63658504184565,650.6657651097472,1104.8199881150415,879.4837835953915
1533058132.3,1198.6533866680984,517.6212195013949,746.665453032352,1111.5665321212596,773.292174103542
1533058132.304,1189.2142070928078,490.3750608865075,863.9971913034433,1145.2992521523497,797.7949274568575
1533058132.3079998,1101.1237885580822,499.4509144046407,805.3313221678976,1162.1673393937028,413.8757057646157
1533058132.312,1069.66200434911,581.1893902493026,767.9975033808385,1133.4953909801802,639.8709458988478
1533058132.316,1085.389674890601,544.8487800557942,725.3334026838656,1123.3738477450452,972.0577955249296
1533058132.32,1148.3132433085452,481.2992073683744,698.6710704254655,1141.9277073750486,729.7236688806349
1533058132.324,1148.3132433085452,508.5267679227738,826.663372516384,1165.5423386226198,778.7347519990441
1533058132.3270001,1079.1011839244006,563.0190851525484,800.001040257984,1158.7957946164017,1045.5772084084324
1533058132.331,1035.0559746570377,608.4169508037019,730.6636845937793,1119.9988485161282,906.707825896458
1533058132.335,1066.51775886601,635.6631094185892,714.6728388640382,1098.0734441088237,724.2810909851329
1533058132.339,1170.3358479422266,671.9851215516096,720.003120773952,1111.5665321212596,558.1820897603138
1533058132.343,1179.7750275175172,681.0795731302308,906.6722147092479,1141.9277073750486,487.3895422363403
1533058132.3470001,1088.5403634996912,662.9092680334766,885.3401643607615,1136.866935757481,740.6144010834172
1533058132.351,1069.66200434911,699.231280166497,789.3404764381567,1114.9380768985604,868.5874749808311
1533058132.355,1085.389674890601,708.325731745118,848.0063455737023,1096.384217268557,857.6967427780488
1533058132.359,1198.6533866680984,753.7235973962715,832.0045771351295,1094.6984448799064,743.3412664429463
1533058132.363,1245.8428414185616,790.0456095292919,901.3310100905024,1118.3130761274776,522.7886042042162
1533058132.3660002,1142.0247523423448,717.4015852632511,1008.0021845417664,1152.0492506101837,781.456040946795
1533058132.37,1097.9795430749818,735.5532922995174,981.3398522833663,1148.6742513812667,688.882029017257
1533058132.3739998,1123.1463931917635,762.7994509144046,1040.005721418912,1130.1203917512632,628.9802136960657
1533058132.3779998,1195.5026980590083,599.3410972855688,986.67013419328,1121.6880753563946,819.5763918624219
1533058132.3820002,1271.0096915353433,599.3410972855688,1013.33246645168,1121.6880753563946,776.013463051293
1533058132.3860002,1201.7976321511987,590.2652437674357,1136.0054093415167,1121.6880753563946,1007.4568574928054
1533058132.39,1097.9795430749818,490.3750608865075,1002.6719026318527,1104.8199881150415,920.3254234587694
1533058132.394,1075.9569384413005,535.7729265376611,912.0024966191615,1096.384217268557,746.0625553906973
1533058132.3979998,1154.6081774007355,599.3410972855688,912.0024966191615,1101.4449888861245,509.17100664190474
1533058132.4020002,1230.1087277510806,563.0190851525484,1013.33246645168,1131.8061641399136,672.5431425071946
1533058132.4060001,1198.6533866680984,626.5872559004561,992.0004161031936,1158.7957946164017,800.5162164046085
1533058132.409,1120.0021477086634,681.0795731302308,917.3327785290752,1135.1811633688308,590.8598627804388
1533058132.4129999,1041.3444656232382,690.1554266483638,890.6704462706751,1119.9988485161282,392.08866494727306
1533058132.417,1116.851459099573,708.325731745118,730.6636845937793,1123.3738477450452,487.3895422363403
1533058132.421,1239.5479073263712,753.7235973962715,805.3313221678976,1126.745392522346,563.630244067594
1533058132.425,1245.8428414185616,835.4620732409335,1024.0039529803391,1148.6742513812667,931.2161556615516
1533058132.429,1164.0409138500363,844.5379267590665,879.998959742016,1157.106567776135,1002.0087031855252
1533058132.4329998,1110.5629681333728,762.7994509144046,698.6710704254655,1133.4953909801802,658.9311213566614
1533058132.437,1173.480093425327,708.325731745118,655.9960470196609,1123.3738477450452,707.9422044750704
1533058132.441,1255.2820209938523,681.0795731302308,757.3369395610111,1131.8061641399136,661.6524103044123
1533058132.445,1255.2820209938523,662.9092680334766,800.001040257984,1143.6134797636992,718.8329366778527
1533058132.449,1173.480093425327,690.1554266483638,693.32986580672,1118.3130761274776,751.5051332861993
1533058132.4520001,1088.5403634996912,635.6631094185892,704.0013523353791,1079.5161300272039,811.4125250191689
1533058132.456,1104.2680340411823,563.0190851525484,709.3316342452929,1084.5769016447714,1100.0308694223436
1533058132.46,1208.0861231173992,617.511402382323,725.3334026838656,1106.505760503692,1236.1733865747885
1533058132.464,1182.9192730006175,662.9092680334766,805.3313221678976,1109.880759732609,1426.7751411529232
1533058132.468,1104.2680340411823,653.8334145153434,848.0063455737023,1131.8061641399136,1211.6706332214733
1533058132.4720001,1069.66200434911,653.8334145153434,832.0045771351295,1114.9380768985604,1023.7901675910897
1533058132.476,1072.8062498322104,581.1893902493026,741.3351711224384,1074.4588128612525,1154.4901068480328
1533058132.48,1179.7750275175172,563.0190851525484,629.3337147612608,1074.4588128612525,988.396682034992
1533058132.484,1189.2142070928078,662.9092680334766,778.6689899094976,1101.4449888861245,805.9643707118887
1533058132.488,1094.8288544658917,681.0795731302308,837.3348590450431,1103.130761274775,517.340449896936
1533058132.4910002,1085.389674890601,662.9092680334766,816.0028086965567,1079.5161300272039,604.471883930972
1533058132.495,1110.5629681333728,662.9092680334766,821.3330906064704,1096.384217268557,952.9976200671161
1533058132.4989998,1170.3358479422266,690.1554266483638,821.3330906064704,1101.4449888861245,914.8772691514891
1533058132.5029998,1151.4574887916453,735.5532922995174,848.0063455737023,1103.130761274775,746.0625553906973
1533058132.5070002,1060.2228247738194,681.0795731302308,783.9992718194112,1116.627303738827,724.2810909851329
1533058132.5110002,1035.0559746570377,626.5872559004561,736.0048892125247,1111.5665321212596,675.2644314549456
1533058132.515,1085.389674890601,671.9851215516096,778.6689899094976,1104.8199881150415,650.7616781016301
1533058132.519,1195.5026980590083,681.0795731302308,783.9992718194112,1118.3130761274776,776.013463051293
1533058132.5229998,1226.9644822679804,708.325731745118,901.3310100905024,1133.4953909801802,838.6365673202354
1533058132.5270002,1179.7750275175172,708.325731745118,965.3380838447935,1131.8061641399136,756.9532875934796
1533058132.5310001,1091.6846089827916,671.9851215516096,810.6725267866431,1093.0126724912561,980.2272387799608
1533058132.534,1035.0559746570377,735.5532922995174,693.32986580672,1076.144585249903,778.7347519990441
1533058132.5379999,1135.7298182501543,762.7994509144046,762.6672214709248,1077.8303576385536,688.882029017257
1533058132.542,1182.9192730006175,726.4774387813842,906.6722147092479,1091.3234456509895,743.3412664429463
1533058132.546,1113.707213616473,717.4015852632511,832.0045771351295,1113.2523045099101,781.456040946795
1533058132.55,1072.8062498322104,735.5532922995174,725.3334026838656,1108.1915328923426,778.7347519990441
1533058132.554,1028.7610405648475,690.1554266483638,597.3301778841153,1096.384217268557,528.2311820997182
1533058132.5579998,1110.5629681333728,744.6477438781384,554.6660771871424,1101.4449888861245,675.2644314549456
1533058132.562,1198.6533866680984,799.1214630474251,762.6672214709248,1135.1811633688308,947.5550421716141
1533058132.566,1126.2906386748637,753.7235973962715,837.3348590450431,1150.3600237699172,718.8329366778527
1533058132.57,1101.1237885580822,717.4015852632511,752.0066576510975,1128.4346193626127,803.2430817641377
1533058132.574,1079.1011839244006,726.4774387813842,645.3354831998336,1118.3130761274776,786.9041952540753
1533058132.5770001,1104.2680340411823,681.0795731302308,549.3357952772287,1106.505760503692,727.0023799328839
1533058132.581,1201.7976321511987,708.325731745118,613.331946322688,1140.2419349863983,819.5763918624219
1533058132.585,1192.3584525759081,744.6477438781384,650.6657651097472,1172.2888826288379,814.1338139669199
1533058132.589,1110.5629681333728,690.1554266483638,549.3357952772287,1165.5423386226198,838.6365673202354
1533058132.593,1085.389674890601,681.0795731302308,528.0037449287423,1148.6742513812667,514.6191609491849
1533058132.5970001,1154.6081774007355,708.325731745118,528.0037449287423,1143.6134797636992,781.456040946795
1533058132.601,1258.4262664769524,735.5532922995174,559.996359097056,1158.7957946164017,939.3855989165828
1533058132.605,1208.0861231173992,708.325731745118,698.6710704254655,1180.7211990237063,852.2541648825468
1533058132.609,1097.9795430749818,671.9851215516096,720.003120773952,1179.0354266350557,721.5542256256037
1533058132.613,1072.8062498322104,653.8334145153434,661.3372516384063,1148.6742513812667,642.5922348465989
1533058132.6160002,1104.2680340411823,590.2652437674357,554.6660771871424,1126.745392522346,814.1338139669199
1533058132.62,1173.480093425327,608.4169508037019,597.3301778841153,1123.3738477450452,669.8218535594435
1533058132.6239998,1220.67599130178,726.4774387813842,783.9992718194112,1118.3130761274776,247.77670453979667
1533058132.6279998,1182.9192730006175,780.9697560111589,757.3369395610111,1116.627303738827,680.7125857622258
1533058132.6320002,1132.5855727670541,762.7994509144046,640.0052012899199,1118.3130761274776,1151.7688179002819
1533058132.6360002,1135.7298182501543,753.7235973962715,655.9960470196609,1114.9380768985604,1110.9271780369038
1533058132.64,1201.7976321511987,771.8939024930257,682.6693019868927,1109.880759732609,923.0467124065204
1533058132.644,1242.6921528094715,808.2159146260461,757.3369395610111,1140.2419349863983,827.7458351174532
1533058132.6479998,1164.0409138500363,780.9697560111589,677.3390200769791,1141.9277073750486,680.7125857622258
1533058132.6520002,1079.1011839244006,790.0456095292919,533.334026838656,1094.6984448799064,645.3135237943499
1533058132.6560001,1085.389674890601,790.0456095292919,538.6643087485696,1086.266128485038,890.3745157981738
1533058132.659,1198.6533866680984,699.231280166497,575.9981275356288,1099.759216497474,844.0847216275156
1533058132.6629999,1233.2594163601707,708.325731745118,693.32986580672,1126.745392522346,577.2422652181273
1533058132.667,1173.480093425327,744.6477438781384,730.6636845937793,1145.2992521523497,808.6856596596397
1533058132.671,1116.851459099573,662.9092680334766,575.9981275356288,1135.1811633688308,963.8883522698983
1533058132.675,1094.8288544658917,626.5872559004561,458.6663892645376,1135.1811633688308,615.3626161337543
1533058132.679,1195.5026980590083,717.4015852632511,517.3322584000832,1138.5527081461316,525.5098931519672
1533058132.6829998,1245.8428414185616,771.8939024930257,640.0052012899199,1157.106567776135,914.8772691514891
1533058132.687,1176.630782034417,790.0456095292919,575.9981275356288,1158.7957946164017,781.456040946795
1533058132.691,1104.2680340411823,753.7235973962715,485.3287215229377,1141.9277073750486,435.65717017018017
1533058132.695,1075.9569384413005,644.7575609972102,501.33048996151047,1133.4953909801802,903.986536948707
1533058132.698,1170.3358479422266,608.4169508037019,544.0055133673151,1148.6742513812667,1026.5170329506188
1533058132.7020001,1217.5253026926898,644.7575609972102,645.3354831998336,1153.7350229988342,857.6967427780488
1533058132.706,1135.7298182501543,581.1893902493026,677.3390200769791,1153.7350229988342,887.6476504386445
1533058132.71,1088.5403634996912,581.1893902493026,629.3337147612608,1146.9884789926161,1018.3475896955877
1533058132.714,1085.389674890601,690.1554266483638,533.334026838656,1108.1915328923426,579.9691305776565
1533058132.718,1173.480093425327,681.0795731302308,469.3378757931967,1091.3234456509895,688.882029017257
1533058132.7220001,1267.865446052243,699.231280166497,613.331946322688,1126.745392522346,852.2541648825468
1533058132.726,1214.3810572095895,699.231280166497,832.0045771351295,1135.1811633688308,903.986536948707
1533058132.73,1164.0409138500363,590.2652437674357,794.6707583480703,1131.8061641399136,928.4948667138007
1533058132.734,1120.0021477086634,553.9432316344153,714.6728388640382,1131.8061641399136,677.9912968144748
1533058132.738,1148.3132433085452,544.8487800557942,655.9960470196609,1133.4953909801802,1135.4299313902193
1533058132.7410002,1236.403661843271,535.7729265376611,671.9978154582336,1152.0492506101837,1138.1512203379705
1533058132.745,1186.0635184837176,599.3410972855688,698.6710704254655,1152.0492506101837,835.9152783724844
1533058132.7489998,1120.0021477086634,599.3410972855688,677.3390200769791,1146.9884789926161,675.2644314549456
1533058132.7529998,1110.5629681333728,581.1893902493026,720.003120773952,1111.5665321212596,707.9422044750704
1533058132.7570002,1160.896668366936,635.6631094185892,613.331946322688,1099.759216497474,1023.7901675910897
1533058132.7610002,1208.0861231173992,681.0795731302308,661.3372516384063,1119.9988485161282,1010.1781464405565
1533058132.765,1182.9192730006175,681.0795731302308,879.998959742016,1128.4346193626127,874.0356292881113
1533058132.769,1120.0021477086634,572.0949386706815,800.001040257984,1118.3130761274776,702.4940501677902
1533058132.7729998,1091.6846089827916,517.6212195013949,629.3337147612608,1091.3234456509895,528.2311820997182
1533058132.7770002,1145.1689978254449,617.511402382323,597.3301778841153,1076.144585249903,702.4940501677902
1533058132.7810001,1214.3810572095895,699.231280166497,730.6636845937793,1087.9519008736886,846.8060105752667
1533058132.784,1195.5026980590083,699.231280166497,773.3387079995839,1114.9380768985604,988.396682034992
1533058132.7879999,1123.1463931917635,699.231280166497,661.3372516384063,1106.505760503692,672.5431425071946
1533058132.792,1060.2228247738194,671.9851215516096,634.6639966711745,1069.398041243685,435.65717017018017
1533058132.796,1069.66200434911,608.4169508037019,575.9981275356288,1050.8441816136815,451.9904802684644
1533058132.8,1154.6081774007355,535.7729265376611,618.6622282326017,1066.023042014768,383.9192216922418
1533058132.804,1167.1916024591264,535.7729265376611,746.665453032352,1098.0734441088237,599.02930603547
1533058132.8079998,1094.8288544658917,590.2652437674357,709.3316342452929,1071.0838136323355,710.6634934228215
1533058132.812,1053.934333807619,581.1893902493026,693.32986580672,1030.6010951434112,1037.4077651534012
1533058132.816,1113.707213616473,535.7729265376611,645.3354831998336,1040.7226383785464,1061.9105185067167
1533058132.82,1201.7976321511987,572.0949386706815,704.0013523353791,1050.8441816136815,710.6634934228215
1533058132.823,1173.480093425327,653.8334145153434,810.6725267866431,1079.5161300272039,552.7395118648119
1533058132.8270001,1126.2906386748637,690.1554266483638,736.0048892125247,1074.4588128612525,776.013463051293
1533058132.831,1120.0021477086634,690.1554266483638,618.6622282326017,1037.3476391496292,882.2050725431425
1533058132.835,1110.5629681333728,708.325731745118,544.0055133673151,1039.036865989896,599.02930603547
1533058132.839,1179.7750275175172,681.0795731302308,570.6678456257151,1054.2157263909824,803.2430817641377
1533058132.843,1217.5253026926898,717.4015852632511,677.3390200769791,1059.2764980085499,1007.4568574928054
1533058132.8470001,1151.4574887916453,799.1214630474251,757.3369395610111,1081.2053568674705,1051.0197863039343
1533058132.851,1129.434884157964,726.4774387813842,757.3369395610111,1087.9519008736886,999.2874142377742
1533058132.855,1135.7298182501543,690.1554266483638,645.3354831998336,1060.9622703972004,1070.0799617617479
1533058132.859,1182.9192730006175,671.9851215516096,608.0016644127744,1057.5907256198993,797.7949274568575
1533058132.863,1217.5253026926898,653.8334145153434,752.0066576510975,1098.0734441088237,582.6904195254075
1533058132.8660002,1189.2142070928078,653.8334145153434,693.32986580672,1101.4449888861245,599.02930603547
1533058132.87,1138.8740637332546,599.3410972855688,528.0037449287423,1087.9519008736886,555.4608008125629
1533058132.8739998,1107.4122795242824,590.2652437674357,463.99667117445125,1069.398041243685,803.2430817641377
1533058132.8779998,1201.7976321511987,671.9851215516096,501.33048996151047,1086.266128485038,1168.1021279985662
1533058132.8820002,1252.1313323847621,699.231280166497,554.6660771871424,1114.9380768985604,1026.5170329506188
1533058132.8860002,1167.1916024591264,681.0795731302308,661.3372516384063,1101.4449888861245,854.9754538302979
1533058132.89,1138.8740637332546,681.0795731302308,687.9995838968064,1087.9519008736886,936.6643099688318
1533058132.894,1101.1237885580822,671.9851215516096,640.0052012899199,1062.6514972374669,909.4346912559872
1533058132.8979998,1091.6846089827916,717.4015852632511,581.3393321543742,1044.0976376074634,650.7616781016301
1533058132.9020002,1173.480093425327,735.5532922995174,671.9978154582336,1055.904953231249,710.6634934228215
1533058132.9060001,1145.1689978254449,708.325731745118,842.6651409549569,1071.0838136323355,664.3736992521633
1533058132.909,1082.245429407501,799.1214630474251,720.003120773952,1072.7695860209858,541.8487796620296
1533058132.9129999,1069.66200434911,780.9697560111589,591.9998959742016,1057.5907256198993,402.97939715005526
1533058132.917,1126.2906386748637,744.6477438781384,538.6643087485696,1062.6514972374669,528.2311820997182
1533058132.921,1217.5253026926898,808.2159146260461,575.9981275356288,1091.3234456509895,713.3847823705725
1533058132.925,1182.9192730006175,735.5532922995174,581.3393321543742,1093.0126724912561,699.7727612200392
1533058132.929,1104.2680340411823,717.4015852632511,458.6663892645376,1099.759216497474,923.0467124065204
1533058132.9329998,1057.0785792907193,726.4774387813842,389.3290336003329,1077.8303576385536,795.0736385091064
1533058132.937,1101.1237885580822,690.1554266483638,442.66462082596485,1055.904953231249,530.9580474592474
1533058132.941,1198.6533866680984,681.0795731302308,544.0055133673151,1082.891129256121,582.6904195254075
1533058132.945,1154.6081774007355,708.325731745118,671.9978154582336,1101.4449888861245,805.9643707118887
1533058132.948,1063.3670702569198,699.231280166497,575.9981275356288,1091.3234456509895,776.013463051293
1533058132.9520001,1028.7610405648475,690.1554266483638,533.334026838656,1082.891129256121,825.0245461697021
1533058132.956,1072.8062498322104,662.9092680334766,490.66992614168316,1093.0126724912561,912.1559802037382
1533058132.96,1170.3358479422266,644.7575609972102,490.66992614168316,1072.7695860209858,816.855102914671
1533058132.964,1214.3810572095895,690.1554266483638,618.6622282326017,1064.3372696261174,857.6967427780488
1533058132.968,1170.3358479422266,717.4015852632511,618.6622282326017,1081.2053568674705,721.5542256256037
1533058132.9720001,1120.0021477086634,690.1554266483638,490.66992614168316,1064.3372696261174,658.9311213566614
1533058132.976,1123.1463931917635,708.325731745118,373.3381878705919,1052.5299540023318,716.1116477301017
1533058132.98,1198.6533866680984,708.325731745118,490.66992614168316,1045.783409996114,667.1005646116926
1533058132.984,1255.2820209938523,744.6477438781384,687.9995838968064,1049.1549547734148,465.6080778307758
1533058132.988,1198.6533866680984,744.6477438781384,709.3316342452929,1059.2764980085499,481.94696434083824
1533058132.9910002,1126.2906386748637,671.9851215516096,629.3337147612608,1071.0838136323355,759.6745765412306
1533058132.995,1157.7524228838358,635.6631094185892,517.3322584000832,1067.7122688550344,648.0403891538791
1533058132.9989998,1271.0096915353433,653.8334145153434,575.9981275356288,1066.023042014768,503.7284287464027
1533058133.0029998,1277.3046256275336,699.231280166497,757.3369395610111,1072.7695860209858,800.5162164046085
1533058133.0070002,1189.2142070928078,662.9092680334766,736.0048892125247,1071.0838136323355,762.4014419007598
1533058133.0110002,1142.0247523423448,671.9851215516096,629.3337147612608,1057.5907256198993,269.5637453571393
1533058133.015,1126.2906386748637,726.4774387813842,602.6713825028608,1062.6514972374669,639.8709458988478
1533058133.019,1195.5026980590083,717.4015852632511,586.669614064288,1076.144585249903,838.6365673202354
1533058133.0229998,1264.7147574431528,799.1214630474251,602.6713825028608,1087.9519008736886,430.20901586289995
1533058133.0270002,1170.3358479422266,744.6477438781384,682.6693019868927,1111.5665321212596,727.0023799328839
1533058133.03,1063.3670702569198,690.1554266483638,650.6657651097472,1093.0126724912561,977.5059498322098
1533058133.034,1057.0785792907193,744.6477438781384,586.669614064288,1079.5161300272039,795.0736385091064
1533058133.0379999,1142.0247523423448,681.0795731302308,538.6643087485696,1093.0126724912561,822.3032572219512
1533058133.042,1192.3584525759081,671.9851215516096,645.3354831998336,1116.627303738827,1312.4140884060425
1533058133.046,1120.0021477086634,699.231280166497,618.6622282326017,1131.8061641399136,1187.1623034563795
1533058133.05,1085.389674890601,608.4169508037019,448.0058254447103,1104.8199881150415,661.6524103044123
1533058133.054,1082.245429407501,590.2652437674357,394.6702382190783,1076.144585249903,501.0015633868735
1533058133.0579998,1170.3358479422266,581.1893902493026,383.9987516904192,1089.637673262339,593.5811517281898
1533058133.062,1255.2820209938523,590.2652437674357,458.6663892645376,1101.4449888861245,732.4449578283859
1533058133.066,1179.7750275175172,644.7575609972102,618.6622282326017,1114.9380768985604,770.5653087440128
1533058133.07,1120.0021477086634,617.511402382323,586.669614064288,1106.505760503692,898.543959053205
1533058133.073,1075.9569384413005,626.5872559004561,463.99667117445125,1074.4588128612525,985.675393087241
1533058133.0770001,1085.389674890601,544.8487800557942,490.66992614168316,1072.7695860209858,653.4829670493812
1533058133.081,1198.6533866680984,563.0190851525484,608.0016644127744,1074.4588128612525,634.4227915915677
1533058133.085,1167.1916024591264,653.8334145153434,714.6728388640382,1082.891129256121,593.5811517281898
1533058133.089,1094.8288544658917,590.2652437674357,720.003120773952,1074.4588128612525,620.8107704410344
1533058133.093,1072.8062498322104,535.7729265376611,624.0034328513472,1054.2157263909824,756.9532875934796
1533058133.0970001,1116.851459099573,499.4509144046407,581.3393321543742,1033.9760943723284,713.3847823705725
1533058133.101,1211.2368117264893,499.4509144046407,714.6728388640382,1040.7226383785464,906.707825896458
1533058133.105,1182.9192730006175,617.511402382323,725.3334026838656,1062.6514972374669,849.5272995230176
1533058133.109,1129.434884157964,581.1893902493026,650.6657651097472,1059.2764980085499,776.013463051293
1533058133.113,1116.851459099573,435.88274365673294,618.6622282326017,1059.2764980085499,972.0577955249296
1533058133.1160002,1167.1916024591264,508.5267679227738,517.3322584000832,1066.023042014768,514.6191609491849
1533058133.12,1261.5705119600527,599.3410972855688,671.9978154582336,1067.7122688550344,664.3736992521633
1533058133.1239998,1271.0096915353433,572.0949386706815,858.6669093935296,1099.759216497474,822.3032572219512
1533058133.1279998,1154.6081774007355,535.7729265376611,821.3330906064704,1113.2523045099101,732.4449578283859
1533058133.1320002,1075.9569384413005,517.6212195013949,736.0048892125247,1081.2053568674705,860.4236081375781
1533058133.1360002,1135.7298182501543,544.8487800557942,677.3390200769791,1066.023042014768,778.7347519990441
1533058133.14,1220.67599130178,617.511402382323,709.3316342452929,1069.398041243685,884.9263614908936
1533058133.144,1220.67599130178,708.325731745118,693.32986580672,1099.759216497474,650.7616781016301
1533058133.1479998,1157.7524228838358,762.7994509144046,682.6693019868927,1086.266128485038,503.7284287464027
1533058133.1520002,1101.1237885580822,835.4620732409335,618.6622282326017,1042.4084107671968,740.6144010834172
1533058133.155,1138.8740637332546,899.0116459283532,533.334026838656,1054.2157263909824,961.1670633221473
1533058133.159,1236.403661843271,889.9357924102201,586.669614064288,1066.023042014768,830.4727004769824
1533058133.1629999,1204.9418776342989,790.0456095292919,650.6657651097472,1077.8303576385536,394.8155303068022
1533058133.167,1101.1237885580822,681.0795731302308,629.3337147612608,1086.266128485038,601.7505949832209
1533058133.171,1053.934333807619,662.9092680334766,549.3357952772287,1064.3372696261174,593.5811517281898
1533058133.175,1069.66200434911,681.0795731302308,512.0019764901696,1039.036865989896,631.7015026438166
1533058133.179,1151.4574887916453,690.1554266483638,528.0037449287423,1035.661866760979,849.5272995230176
1533058133.1829998,1204.9418776342989,671.9851215516096,720.003120773952,1069.398041243685,748.7838443384484
1533058133.187,1135.7298182501543,681.0795731302308,714.6728388640382,1086.266128485038,838.6365673202354
1533058133.191,1079.1011839244006,690.1554266483638,575.9981275356288,1060.9622703972004,882.2050725431425
1533058133.195,1075.9569384413005,635.6631094185892,597.3301778841153,1022.1687787485428,846.8060105752667
1533058133.198,1138.8740637332546,608.4169508037019,640.0052012899199,1027.2295503661103,1105.4790237296238
1533058133.2020001,1182.9192730006175,608.4169508037019,709.3316342452929,1066.023042014768,1045.5772084084324
1533058133.206,1123.1463931917635,626.5872559004561,661.3372516384063,1057.5907256198993,950.2763311193651
1533058133.21,1057.0785792907193,590.2652437674357,602.6713825028608,1045.783409996114,917.6041345110184
1533058133.214,1019.3283041155468,599.3410972855688,613.331946322688,1040.7226383785464,604.471883930972
1533058133.218,1085.389674890601,681.0795731302308,538.6643087485696,1012.0472355134077,566.3515330153451
1533058133.2220001,1145.1689978254449,671.9851215516096,591.9998959742016,1027.2295503661103,748.7838443384484
1533058133.226,1069.66200434911,608.4169508037019,709.3316342452929,1040.7226383785464,686.160740069506
1533058133.23,987.8665199065747,517.6212195013949,613.331946322688,1037.3476391496292,697.0514722722883
1533058133.234,946.965556122312,454.05304875348713,512.0019764901696,1040.7226383785464,555.4608008125629
1533058133.238,1044.4951542323283,472.20475578975334,602.6713825028608,1035.661866760979,944.8281768120848
1533058133.2410002,1189.2142070928078,572.0949386706815,730.6636845937793,1060.9622703972004,1132.7086424424683
1533058133.245,1145.1689978254449,671.9851215516096,714.6728388640382,1069.398041243685,844.0847216275156
1533058133.2489998,1053.934333807619,644.7575609972102,655.9960470196609,1054.2157263909824,732.4449578283859
1533058133.2529998,1069.66200434911,599.3410972855688,559.996359097056,1037.3476391496292,677.9912968144748
1533058133.2570002,1085.389674890601,599.3410972855688,474.66815770311035,1042.4084107671968,991.117970982743
1533058133.2610002,1142.0247523423448,617.511402382323,549.3357952772287,1052.5299540023318,702.4940501677902
1533058133.265,1151.4574887916453,608.4169508037019,655.9960470196609,1050.8441816136815,277.72761220039234
1533058133.269,1063.3670702569198,626.5872559004561,597.3301778841153,1035.661866760979,618.0894814932834
1533058133.2729998,1035.0559746570377,653.8334145153434,544.0055133673151,1001.9291467298888,495.5589854913715
1533058133.2770002,1104.2680340411823,662.9092680334766,575.9981275356288,1006.9864638958402,748.7838443384484
1533058133.28,1154.6081774007355,690.1554266483638,666.66753354832,1039.036865989896,1206.222478914193
1533058133.284,1107.4122795242824,699.231280166497,709.3316342452929,1055.904953231249,939.3855989165828
1533058133.2879999,1091.6846089827916,717.4015852632511,650.6657651097472,1044.0976376074634,811.4125250191689
1533058133.292,1075.9569384413005,771.8939024930257,602.6713825028608,1020.4830063598923,669.8218535594435
1533058133.296,1075.9569384413005,726.4774387813842,570.6678456257151,1006.9864638958402,1083.6975593240593
1533058133.3,1142.0247523423448,662.9092680334766,591.9998959742016,1018.7937795196257,1298.8020672555092
1533058133.304,1148.3132433085452,671.9851215516096,613.331946322688,1042.4084107671968,746.0625553906973
1533058133.3079998,1082.245429407501,644.7575609972102,608.0016644127744,1035.661866760979,577.2422652181273
1533058133.312,1060.2228247738194,581.1893902493026,666.66753354832,1025.5437779774597,792.3523495613555
1533058133.316,1069.66200434911,590.2652437674357,725.3334026838656,1032.2903219836778,923.0467124065204
1533058133.32,1151.4574887916453,599.3410972855688,693.32986580672,1055.904953231249,716.1116477301017
1533058133.323,1236.403661843271,662.9092680334766,783.9992718194112,1072.7695860209858,895.8170936936757
1533058133.3270001,1189.2142070928078,681.0795731302308,752.0066576510975,1066.023042014768,846.8060105752667
1533058133.331,1126.2906386748637,608.4169508037019,613.331946322688,1055.904953231249,710.6634934228215
1533058133.335,1154.6081774007355,644.7575609972102,549.3357952772287,1040.7226383785464,552.7395118648119
1533058133.339,1245.8428414185616,681.0795731302308,640.0052012899199,1062.6514972374669,792.3523495613555
1533058133.343,1242.6921528094715,626.5872559004561,736.0048892125247,1091.3234456509895,1119.091044880157
1533058133.3470001,1129.434884157964,590.2652437674357,624.0034328513472,1091.3234456509895,865.8661860330801
1533058133.351,1097.9795430749818,662.9092680334766,581.3393321543742,1077.8303576385536,577.2422652181273
1533058133.355,1082.245429407501,726.4774387813842,655.9960470196609,1077.8303576385536,664.3736992521633
1533058133.359,1135.7298182501543,644.7575609972102,575.9981275356288,1064.3372696261174,541.8487796620296
1533058133.363,1208.0861231173992,644.7575609972102,645.3354831998336,1067.7122688550344,599.02930603547
1533058133.3660002,1154.6081774007355,708.325731745118,757.3369395610111,1116.627303738827,1010.1781464405565
1533058133.37,1082.245429407501,690.1554266483638,613.331946322688,1098.0734441088237,1029.2383218983698
1533058133.3739998,1060.2228247738194,717.4015852632511,565.3375637158015,1057.5907256198993,882.2050725431425
1533058133.3779998,1138.8740637332546,762.7994509144046,613.331946322688,1079.5161300272039,901.2652480009559
1533058133.3820002,1217.5253026926898,681.0795731302308,666.66753354832,1089.637673262339,830.4727004769824
1533058133.3860002,1142.0247523423448,590.2652437674357,634.6639966711745,1093.0126724912561,923.0467124065204
1533058133.39,1044.4951542323283,563.0190851525484,528.0037449287423,1082.891129256121,1138.1512203379705
1533058133.394,984.7158312974844,581.1893902493026,437.3343389160512,1047.4691823847643,697.0514722722883
1533058133.3979998,1069.66200434911,635.6631094185892,325.3328825548736,1052.5299540023318,353.9683140316461
1533058133.4020002,1173.480093425327,681.0795731302308,421.33257047747844,1079.5161300272039,332.18684962608165
1533058133.405,1116.851459099573,681.0795731302308,538.6643087485696,1103.130761274775,566.3515330153451
1533058133.409,1079.1011839244006,635.6631094185892,469.3378757931967,1108.1915328923426,789.6254842018262
1533058133.4129999,1057.0785792907193,590.2652437674357,463.99667117445125,1087.9519008736886,879.4837835953915
1533058133.417,1091.6846089827916,526.6970730195279,442.66462082596485,1091.3234456509895,854.9754538302979
1533058133.421,1179.7750275175172,599.3410972855688,501.33048996151047,1098.0734441088237,637.1496569510969
1533058133.425,1110.5629681333728,771.8939024930257,629.3337147612608,1109.880759732609,776.013463051293
1533058133.429,1041.3444656232382,744.6477438781384,528.0037449287423,1109.880759732609,1064.6373838662457
1533058133.4329998,1041.3444656232382,690.1554266483638,463.99667117445125,1093.0126724912561,974.7790844726806
1533058133.437,1094.8288544658917,644.7575609972102,485.3287215229377,1077.8303576385536,844.0847216275156
1533058133.441,1173.480093425327,581.1893902493026,597.3301778841153,1099.759216497474,950.2763311193651
1533058133.445,1164.0409138500363,563.0190851525484,640.0052012899199,1128.4346193626127,680.7125857622258
1533058133.448,1085.389674890601,599.3410972855688,650.6657651097472,1118.3130761274776,699.7727612200392
1533058133.4520001,1057.0785792907193,608.4169508037019,671.9978154582336,1104.8199881150415,1200.779901018691
1533058133.456,1107.4122795242824,644.7575609972102,575.9981275356288,1087.9519008736886,1091.8670025790905
1533058133.46,1198.6533866680984,662.9092680334766,506.6716945802559,1077.8303576385536,599.02930603547
1533058133.464,1208.0861231173992,662.9092680334766,634.6639966711745,1098.0734441088237,402.97939715005526
1533058133.468,1126.2906386748637,735.5532922995174,586.669614064288,1114.9380768985604,656.2098324089103
1533058133.4720001,1075.9569384413005,708.325731745118,496.0002080515968,1114.9380768985604,683.4338747099767
1533058133.476,1104.2680340411823,699.231280166497,501.33048996151047,1109.880759732609,784.1829063063243
1533058133.48,1167.1916024591264,681.0795731302308,517.3322584000832,1094.6984448799064,748.7838443384484
1533058133.484,1186.0635184837176,608.4169508037019,565.3375637158015,1113.2523045099101,517.340449896936
1533058133.4870002,1148.3132433085452,617.511402382323,506.6716945802559,1123.3738477450452,770.5653087440128
1533058133.4910002,1050.7836451985288,681.0795731302308,442.66462082596485,1104.8199881150415,939.3855989165828
1533058133.495,1035.0559746570377,653.8334145153434,453.33610735462395,1098.0734441088237,898.543959053205
1533058133.4989998,1160.896668366936,662.9092680334766,538.6643087485696,1111.5665321212596,631.7015026438166
1533058133.5029998,1167.1916024591264,699.231280166497,693.32986580672,1123.3738477450452,786.9041952540753
1533058133.5070002,1097.9795430749818,635.6631094185892,634.6639966711745,1123.3738477450452,952.9976200671161
1533058133.5110002,1097.9795430749818,608.4169508037019,586.669614064288,1113.2523045099101,1012.8994353883074
1533058133.515,1082.245429407501,617.511402382323,624.0034328513472,1089.637673262339,906.707825896458
1533058133.519,1148.3132433085452,608.4169508037019,597.3301778841153,1093.0126724912561,579.9691305776565
1533058133.5229998,1198.6533866680984,599.3410972855688,661.3372516384063,1111.5665321212596,669.8218535594435
1533058133.5270002,1132.5855727670541,581.1893902493026,629.3337147612608,1119.9988485161282,710.6634934228215
1533058133.53,1110.5629681333728,617.511402382323,565.3375637158015,1123.3738477450452,857.6967427780488
1533058133.534,1104.2680340411823,644.7575609972102,544.0055133673151,1087.9519008736886,781.456040946795
1533058133.5379999,1151.4574887916453,617.511402382323,479.998439613024,1089.637673262339,639.8709458988478
1533058133.542,1230.1087277510806,671.9851215516096,570.6678456257151,1141.9277073750486,443.82661342521135
1533058133.546,1186.0635184837176,608.4169508037019,682.6693019868927,1146.9884789926161,498.28027443912254
1533058133.55,1154.6081774007355,535.7729265376611,554.6660771871424,1128.4346193626127,871.3143403403603
1533058133.554,1123.1463931917635,590.2652437674357,453.33610735462395,1109.880759732609,917.6041345110184
1533058133.5579998,1138.8740637332546,608.4169508037019,437.3343389160512,1094.6984448799064,756.9532875934796
1533058133.562,1233.2594163601707,671.9851215516096,586.669614064288,1111.5665321212596,1083.6975593240593
1533058133.566,1176.630782034417,753.7235973962715,698.6710704254655,1128.4346193626127,1037.4077651534012
1533058133.57,1107.4122795242824,726.4774387813842,624.0034328513472,1119.9988485161282,844.0847216275156
1533058133.573,1072.8062498322104,699.231280166497,575.9981275356288,1099.759216497474,773.292174103542
1533058133.5770001,1120.0021477086634,671.9851215516096,586.669614064288,1081.2053568674705,776.013463051293
1533058133.581,1230.1087277510806,581.1893902493026,666.66753354832,1135.1811633688308,884.9263614908936
1533058133.585,1204.9418776342989,572.0949386706815,597.3301778841153,1153.7350229988342,623.5320593887855
1533058133.589,1154.6081774007355,635.6631094185892,538.6643087485696,1108.1915328923426,517.340449896936
1533058133.593,1120.0021477086634,699.231280166497,485.3287215229377,1093.0126724912561,577.2422652181273
1533058133.5970001,1142.0247523423448,717.4015852632511,437.3343389160512,1086.266128485038,805.9643707118887
1533058133.601,1208.0861231173992,690.1554266483638,554.6660771871424,1101.4449888861245,931.2161556615516
1533058133.605,1179.7750275175172,699.231280166497,666.66753354832,1141.9277073750486,626.2533483365364
1533058133.609,1151.4574887916453,744.6477438781384,655.9960470196609,1141.9277073750486,740.6144010834172
1533058133.6120002,1151.4574887916453,780.9697560111589,597.3301778841153,1094.6984448799064,626.2533483365364
1533058133.6160002,1192.3584525759081,817.2917681441793,559.996359097056,1087.9519008736886,547.2913575575317
1533058133.62,1233.2594163601707,835.4620732409335,677.3390200769791,1101.4449888861245,784.1829063063243
1533058133.6239998,1198.6533866680984,799.1214630474251,783.9992718194112,1108.1915328923426,756.9532875934796
1533058133.6279998,1132.5855727670541,735.5532922995174,677.3390200769791,1109.880759732609,786.9041952540753
1533058133.6320002,1107.4122795242824,662.9092680334766,581.3393321543742,1081.2053568674705,800.5162164046085
1533058133.6360002,1138.8740637332546,581.1893902493026,565.3375637158015,1062.6514972374669,506.4497176941537
1533058133.64,1230.1087277510806,626.5872559004561,666.66753354832,1084.5769016447714,669.8218535594435
1533058133.644,1258.4262664769524,653.8334145153434,863.9971913034433,1099.759216497474,830.4727004769824
1533058133.6479998,1198.6533866680984,572.0949386706815,869.3383959221887,1091.3234456509895,996.5661252900233
1533058133.6520002,1142.0247523423448,544.8487800557942,767.9975033808385,1069.398041243685,944.8281768120848
1533058133.655,1126.2906386748637,617.511402382323,757.3369395610111,1044.0976376074634,737.8931121356661
1533058133.659,1201.7976321511987,617.511402382323,752.0066576510975,1040.7226383785464,947.5550421716141
1533058133.6629999,1226.9644822679804,563.0190851525484,821.3330906064704,1074.4588128612525,664.3736992521633
1533058133.667,1135.7298182501543,544.8487800557942,816.0028086965567,1079.5161300272039,626.2533483365364
1533058133.671,1057.0785792907193,499.4509144046407,698.6710704254655,1020.4830063598923,1004.7355685450544
1533058133.675,1031.9117291739376,435.88274365673294,618.6622282326017,988.4326042658366,756.9532875934796
1533058133.679,1104.2680340411823,463.12890227162023,586.669614064288,1008.6756907361067,691.603317965008
1533058133.6829998,1135.7298182501543,563.0190851525484,634.6639966711745,1032.2903219836778,863.144897085329
1533058133.687,1085.389674890601,581.1893902493026,709.3316342452929,1027.2295503661103,923.0467124065204
1533058133.691,1050.7836451985288,526.6970730195279,629.3337147612608,1018.7937795196257,879.4837835953915
1533058133.695,1063.3670702569198,517.6212195013949,581.3393321543742,1032.2903219836778,972.0577955249296
1533058133.698,1157.7524228838358,535.7729265376611,613.331946322688,1039.036865989896,1026.5170329506188
1533058133.7020001,1236.403661843271,581.1893902493026,704.0013523353791,1045.783409996114,928.4948667138007
1533058133.706,1214.3810572095895,690.1554266483638,720.003120773952,1064.3372696261174,972.0577955249296
1533058133.71,1157.7524228838358,708.325731745118,629.3337147612608,1054.2157263909824,928.4948667138007
1533058133.714,1138.8740637332546,726.4774387813842,549.3357952772287,1020.4830063598923,713.3847823705725
1533058133.718,1239.5479073263712,817.2917681441793,549.3357952772287,1012.0472355134077,631.7015026438166
1533058133.7220001,1305.6157212274154,880.8599388920869,709.3316342452929,1033.9760943723284,860.4236081375781
1533058133.726,1211.2368117264893,817.2917681441793,671.9978154582336,1044.0976376074634,795.0736385091064
1533058133.73,1126.2906386748637,771.8939024930257,533.334026838656,1025.5437779774597,686.160740069506
1533058133.734,1120.0021477086634,835.4620732409335,559.996359097056,1001.9291467298888,737.8931121356661
1533058133.7370002,1189.2142070928078,808.2159146260461,554.6660771871424,1000.2399198896221,936.6643099688318
1533058133.7410002,1255.2820209938523,753.7235973962715,597.3301778841153,1023.8545511371933,1045.5772084084324
1533058133.745,1201.7976321511987,735.5532922995174,720.003120773952,1052.5299540023318,732.4449578283859
1533058133.7489998,1135.7298182501543,699.231280166497,687.9995838968064,1035.661866760979,555.4608008125629
1533058133.7529998,1101.1237885580822,780.9697560111589,645.3354831998336,1012.0472355134077,650.7616781016301
1533058133.7570002,1164.0409138500363,771.8939024930257,597.3301778841153,1000.2399198896221,830.4727004769824
1533058133.7610002,1258.4262664769524,671.9851215516096,655.9960470196609,1000.2399198896221,686.160740069506
1533058133.765,1186.0635184837176,708.325731745118,773.3387079995839,1020.4830063598923,754.2319986457286
1533058133.769,1107.4122795242824,681.0795731302308,725.3334026838656,993.4933758834042,789.6254842018262
1533058133.7729998,1041.3444656232382,581.1893902493026,559.996359097056,953.01065739448,541.8487796620296
1533058133.7770002,1066.51775886601,590.2652437674357,602.6713825028608,954.6998842347466,702.4940501677902
1533058133.78,1201.7976321511987,653.8334145153434,741.3351711224384,951.3248850058295,849.5272995230176
1533058133.784,1179.7750275175172,671.9851215516096,800.001040257984,954.6998842347466,786.9041952540753
1533058133.7879999,1044.4951542323283,635.6631094185892,725.3334026838656,966.5071998585321,1026.5170329506188
1533058133.792,1003.5941904480658,662.9092680334766,666.66753354832,959.7606558523141,1249.7909841371002
1533058133.796,1075.9569384413005,599.3410972855688,544.0055133673151,939.517569382044,854.9754538302979
1533058133.8,1154.6081774007355,499.4509144046407,565.3375637158015,954.6998842347466,375.75535484898876
1533058133.804,1154.6081774007355,535.7729265376611,704.0013523353791,986.7468318771862,345.79887077661493
1533058133.8079998,1120.0021477086634,581.1893902493026,677.3390200769791,985.0610594885356,680.7125857622258
1533058133.812,1047.6393997154287,553.9432316344153,613.331946322688,944.5783409996116,797.7949274568575
1533058133.816,1057.0785792907193,553.9432316344153,565.3375637158015,914.2171657458224,795.0736385091064
1533058133.82,1160.896668366936,581.1893902493026,608.0016644127744,912.531393357172,895.8170936936757
1533058133.823,1179.7750275175172,581.1893902493026,725.3334026838656,951.3248850058295,697.0514722722883
1533058133.8270001,1091.6846089827916,553.9432316344153,810.6725267866431,978.3145154823177,577.2422652181273
1533058133.831,1035.0559746570377,499.4509144046407,778.6689899094976,951.3248850058295,841.3634326797646
1533058133.835,1053.934333807619,499.4509144046407,634.6639966711745,939.517569382044,846.8060105752667
1533058133.839,1135.7298182501543,526.6970730195279,602.6713825028608,932.771025375826,781.456040946795
1533058133.843,1182.9192730006175,599.3410972855688,746.665453032352,956.385656623397,825.0245461697021
1533058133.8470001,1104.2680340411823,617.511402382323,805.3313221678976,971.5645170244835,686.160740069506
1533058133.851,1022.472549598647,499.4509144046407,720.003120773952,958.0714290120475,852.2541648825468
1533058133.855,1016.1776155064565,454.05304875348713,608.0016644127744,942.892568610961,857.6967427780488
1533058133.859,1110.5629681333728,544.8487800557942,655.9960470196609,959.7606558523141,898.543959053205
1533058133.8620002,1176.630782034417,553.9432316344153,757.3369395610111,998.5541475009717,811.4125250191689
1533058133.8660002,1164.0409138500363,508.5267679227738,757.3369395610111,1000.2399198896221,846.8060105752667
1533058133.87,1063.3670702569198,535.7729265376611,741.3351711224384,980.0002878709681,876.7569182358623
1533058133.8739998,1006.7384359311659,544.8487800557942,624.0034328513472,946.264113388262,653.4829670493812
1533058133.8779998,1110.5629681333728,590.2652437674357,629.3337147612608,954.6998842347466,890.3745157981738
1533058133.8820002,1167.1916024591264,644.7575609972102,746.665453032352,986.7468318771862,1203.5011899664419
1533058133.8860002,1107.4122795242824,671.9851215516096,693.32986580672,995.1791482720546,950.2763311193651
1533058133.89,1041.3444656232382,771.8939024930257,661.3372516384063,985.0610594885356,963.8883522698983
1533058133.894,1047.6393997154287,862.6896337953327,629.3337147612608,980.0002878709681,1021.0688786433386
1533058133.8979998,1142.0247523423448,817.2917681441793,559.996359097056,973.2537438647502,963.8883522698983
1533058133.9020002,1208.0861231173992,762.7994509144046,725.3334026838656,974.9395162534006,928.4948667138007
1533058133.905,1151.4574887916453,717.4015852632511,826.663372516384,990.1218311061032,560.9089551198431
1533058133.909,1129.434884157964,635.6631094185892,709.3316342452929,969.8787446358331,669.8218535594435
1533058133.9129999,1123.1463931917635,717.4015852632511,602.6713825028608,941.2033417706945,917.6041345110184
1533058133.917,1138.8740637332546,681.0795731302308,538.6643087485696,947.9533402285285,667.1005646116926
1533058133.921,1211.2368117264893,617.511402382323,559.996359097056,963.1322006296151,688.882029017257
1533058133.925,1160.896668366936,690.1554266483638,666.66753354832,986.7468318771862,724.2810909851329
1533058133.929,1085.389674890601,653.8334145153434,693.32986580672,1001.9291467298888,691.603317965008
1533058133.9329998,1069.66200434911,599.3410972855688,597.3301778841153,996.8683751123212,697.0514722722883
1533058133.937,1104.2680340411823,590.2652437674357,490.66992614168316,996.8683751123212,658.9311213566614
1533058133.941,1211.2368117264893,581.1893902493026,506.6716945802559,1005.3006915071898,677.9912968144748
1533058133.944,1198.6533866680984,644.7575609972102,618.6622282326017,1023.8545511371933,795.0736385091064
1533058133.948,1157.7524228838358,708.325731745118,528.0037449287423,1020.4830063598923,650.7616781016301
1533058133.9520001,1129.434884157964,699.231280166497,400.000520128992,1015.4222347423248,558.1820897603138
1533058133.956,1252.1313323847621,808.2159146260461,330.66316446478726,1055.904953231249,664.3736992521633
1533058133.96,1431.4564149373139,835.4620732409335,453.33610735462395,1081.2053568674705,642.5922348465989
1533058133.964,1160.896668366936,644.7575609972102,704.0013523353791,969.8787446358331,854.9754538302979
1533058133.968,931.237885580821,608.4169508037019,602.6713825028608,904.0956225106873,1108.2003126773748
1533058133.9720001,931.237885580821,671.9851215516096,463.99667117445125,902.4098501220369,1067.3586728139967
1533058133.976,862.0193830706864,526.6970730195279,597.3301778841153,843.3732720031092,762.4014419007598
1533058133.98,877.7534967381674,490.3750608865075,837.3348590450431,823.1336399844552,446.54790237296237
1533058133.984,808.541437354023,481.2992073683744,981.3398522833663,796.144009507967,492.8376965436205
1533058133.9870002,657.527450401353,326.9167072576717,837.3348590450431,745.5432022355237,672.5431425071946
1533058133.9910002,610.33799565089,381.39042642695836,725.3334026838656,708.4354829755167,628.9802136960657
1533058133.995,528.5425112083545,299.6705486427844,677.3390200769791,666.2669920979421,879.4837835953915
1533058133.9989998,556.8536068082365,199.78036576185627,591.9998959742016,667.9527644865926,1124.5391991874371
1533058134.0029998,688.9892346103251,245.1782314130098,848.0063455737023,716.8677993703852,797.7949274568575
1533058134.0070002,600.8988160755994,290.5946951246513,917.3327785290752,718.5535717590357,430.20901586289995
1533058134.0110002,506.51990657467314,281.5002435460302,773.3387079995839,705.0604837465996,664.3736992521633
1533058134.015,559.9978522913367,299.6705486427844,800.001040257984,716.8677993703852,1015.6263007478367
1533058134.019,707.8675937609063,308.7464021609175,725.3334026838656,747.2289746241743,615.3626161337543
1533058134.0229998,795.9580122956321,345.0684142939379,783.9992718194112,797.8332363482335,648.0403891538791
1533058134.0270002,742.4736234529786,435.88274365673294,794.6707583480703,828.1944116020227,876.7569182358623
1533058134.03,745.6178689360788,472.20475578975334,602.6713825028608,831.5659563793236,658.9311213566614
1533058134.034,802.2465032618326,426.80689013859984,501.33048996151047,831.5659563793236,462.8867888830248
1533058134.0379999,909.2152809471395,345.0684142939379,570.6678456257151,848.4340436206767,492.8376965436205
1533058134.042,1013.0333700233564,426.80689013859984,650.6657651097472,902.4098501220369,310.4053852205172
1533058134.046,981.5715858143843,481.2992073683744,629.3337147612608,926.024481369608,81.68327972675583
1533058134.05,934.3821310639212,517.6212195013949,549.3357952772287,920.9637097520405,645.3135237943499
1533058134.054,931.237885580821,553.9432316344153,426.6628523873921,920.9637097520405,969.3365065771785
1533058134.0579998,1019.3283041155468,581.1893902493026,410.6720066576511,914.2171657458224,999.2874142377742
1533058134.062,1151.4574887916453,699.231280166497,479.998439613024,934.4567977644764,999.2874142377742
1533058134.066,1113.707213616473,726.4774387813842,586.669614064288,966.5071998585321,792.3523495613555
1533058134.069,1028.7610405648475,708.325731745118,549.3357952772287,963.1322006296151,931.2161556615516
1533058134.073,1003.5941904480658,753.7235973962715,479.998439613024,932.771025375826,1018.3475896955877
1533058134.0770001,1082.245429407501,735.5532922995174,479.998439613024,924.3387089809574,789.6254842018262
1533058134.081,1217.5253026926898,780.9697560111589,554.6660771871424,944.5783409996116,637.1496569510969
1533058134.085,1223.82023678488,808.2159146260461,581.3393321543742,971.5645170244835,988.396682034992
1533058134.089,1176.630782034417,790.0456095292919,479.998439613024,963.1322006296151,1233.4520976270376
1533058134.093,1164.0409138500363,799.1214630474251,432.00405700613754,936.146024604743,838.6365673202354
1533058134.0970001,1179.7750275175172,717.4015852632511,437.3343389160512,924.3387089809574,713.3847823705725
1533058134.101,1236.403661843271,635.6631094185892,528.0037449287423,947.9533402285285,871.3143403403603
1533058134.105,1204.9418776342989,653.8334145153434,608.0016644127744,974.9395162534006,653.4829670493812
1533058134.109,1126.2906386748637,635.6631094185892,618.6622282326017,974.9395162534006,492.8376965436205
1533058134.1120002,1104.2680340411823,644.7575609972102,597.3301778841153,968.1929722471826,539.1219143025004
1533058134.1160002,1164.0409138500363,690.1554266483638,538.6643087485696,971.5645170244835,781.456040946795
1533058134.12,1283.593116593734,699.231280166497,549.3357952772287,964.8179730182655,874.0356292881113
1533058134.1239998,1258.4262664769524,753.7235973962715,634.6639966711745,973.2537438647502,737.8931121356661
1533058134.1279998,1170.3358479422266,780.9697560111589,618.6622282326017,988.4326042658366,558.1820897603138
1533058134.1320002,1154.6081774007355,790.0456095292919,528.0037449287423,959.7606558523141,579.9691305776565
1533058134.1360002,1173.480093425327,826.3676216623123,432.00405700613754,944.5783409996116,805.9643707118887
1533058134.14,1264.7147574431528,780.9697560111589,522.6625403099969,980.0002878709681,675.2644314549456
1533058134.144,1305.6157212274154,771.8939024930257,613.331946322688,1013.7364623536743,721.5542256256037
1533058134.1479998,1239.5479073263712,817.2917681441793,485.3287215229377,1022.1687787485428,707.9422044750704
1533058134.1520002,1186.0635184837176,790.0456095292919,453.33610735462395,1000.2399198896221,604.471883930972
1533058134.155,1186.0635184837176,681.0795731302308,421.33257047747844,981.6860602596187,762.4014419007598
1533058134.159,1252.1313323847621,726.4774387813842,432.00405700613754,1012.0472355134077,729.7236688806349
1533058134.1629999,1296.1765416521248,817.2917681441793,544.0055133673151,1035.661866760979,751.5051332861993
1533058134.167,1230.1087277510806,744.6477438781384,437.3343389160512,1020.4830063598923,672.5431425071946
1533058134.171,1164.0409138500363,717.4015852632511,330.66316446478726,1010.3614631247573,364.8590462344284
1533058134.175,1164.0409138500363,726.4774387813842,351.9952148132737,1003.6149191185392,539.1219143025004
1533058134.179,1261.5705119600527,717.4015852632511,330.66316446478726,981.6860602596187,596.3024406759407
1533058134.1829998,1293.0322961690247,662.9092680334766,426.6628523873921,971.5645170244835,852.2541648825468
1533058134.187,1208.0861231173992,626.5872559004561,485.3287215229377,985.0610594885356,1138.1512203379705
1533058134.191,1126.2906386748637,581.1893902493026,426.6628523873921,993.4933758834042,874.0356292881113
1533058134.194,1097.9795430749818,517.6212195013949,432.00405700613754,981.6860602596187,795.0736385091064
1533058134.198,1201.7976321511987,499.4509144046407,501.33048996151047,986.7468318771862,950.2763311193651
1533058134.2020001,1248.9870869016618,535.7729265376611,661.3372516384063,1010.3614631247573,1135.4299313902193
1533058134.206,1173.480093425327,590.2652437674357,725.3334026838656,1030.6010951434112,1129.981777082939
1533058134.21,1116.851459099573,635.6631094185892,581.3393321543742,1032.2903219836778,1236.1733865747885
1533058134.214,1091.6846089827916,626.5872559004561,453.33610735462395,1017.1080071309752,694.324606912759
1533058134.218,1189.2142070928078,662.9092680334766,501.33048996151047,1006.9864638958402,503.7284287464027
1533058134.2220001,1289.8880506859246,717.4015852632511,608.0016644127744,1020.4830063598923,822.3032572219512
1533058134.226,1230.1087277510806,690.1554266483638,586.669614064288,1030.6010951434112,882.2050725431425
1533058134.23,1148.3132433085452,671.9851215516096,570.6678456257151,1017.1080071309752,838.6365673202354
1533058134.234,1145.1689978254449,708.325731745118,506.6716945802559,1008.6756907361067,539.1219143025004
1533058134.2370002,1214.3810572095895,799.1214630474251,474.66815770311035,1015.4222347423248,334.9081385738327
1533058134.2410002,1286.7373620768342,835.4620732409335,554.6660771871424,1032.2903219836778,615.3626161337543
1533058134.245,1233.2594163601707,771.8939024930257,575.9981275356288,1032.2903219836778,876.7569182358623
1533058134.2489998,1167.1916024591264,662.9092680334766,496.0002080515968,1008.6756907361067,917.6041345110184
1533058134.2529998,1091.6846089827916,590.2652437674357,426.6628523873921,971.5645170244835,1151.7688179002819
1533058134.2570002,1104.2680340411823,499.4509144046407,373.3381878705919,963.1322006296151,1159.938261155313
1533058134.2610002,1242.6921528094715,526.6970730195279,383.9987516904192,1003.6149191185392,898.543959053205
1533058134.265,1198.6533866680984,599.3410972855688,586.669614064288,1020.4830063598923,822.3032572219512
1533058134.269,1069.66200434911,526.6970730195279,591.9998959742016,1000.2399198896221,765.1227308485109
1533058134.2729998,1044.4951542323283,572.0949386706815,485.3287215229377,980.0002878709681,686.160740069506
1533058134.2770002,1120.0021477086634,590.2652437674357,448.0058254447103,980.0002878709681,476.4988100335581
1533058134.28,1248.9870869016618,563.0190851525484,538.6643087485696,993.4933758834042,574.5209762703763
1533058134.284,1226.9644822679804,499.4509144046407,720.003120773952,1006.9864638958402,623.5320593887855
1533058134.2879999,1148.3132433085452,454.05304875348713,666.66753354832,1023.8545511371933,620.8107704410344
1533058134.292,1072.8062498322104,535.7729265376611,591.9998959742016,1022.1687787485428,590.8598627804388
1533058134.296,1063.3670702569198,572.0949386706815,650.6657651097472,986.7468318771862,539.1219143025004
1533058134.3,1173.480093425327,517.6212195013949,677.3390200769791,961.4464282409646,683.4338747099767
1533058134.304,1195.5026980590083,572.0949386706815,720.003120773952,966.5071998585321,835.9152783724844
1533058134.3079998,1120.0021477086634,590.2652437674357,693.32986580672,959.7606558523141,650.7616781016301
1533058134.312,1091.6846089827916,553.9432316344153,655.9960470196609,936.146024604743,530.9580474592474
1533058134.316,1123.1463931917635,508.5267679227738,597.3301778841153,917.5921649747395,789.6254842018262
1533058134.319,1226.9644822679804,508.5267679227738,608.0016644127744,914.2171657458224,707.9422044750704
1533058134.323,1239.5479073263712,599.3410972855688,709.3316342452929,939.517569382044,805.9643707118887
1533058134.3270001,1164.0409138500363,699.231280166497,613.331946322688,932.771025375826,838.6365673202354
1533058134.331,1120.0021477086634,771.8939024930257,565.3375637158015,887.2275352693342,656.2098324089103
1533058134.335,1082.245429407501,735.5532922995174,538.6643087485696,875.4202196455487,664.3736992521633
1533058134.339,1151.4574887916453,653.8334145153434,554.6660771871424,878.7952188744658,830.4727004769824
1533058134.343,1198.6533866680984,590.2652437674357,698.6710704254655,897.3490785044694,686.160740069506
1533058134.3470001,1138.8740637332546,608.4169508037019,757.3369395610111,922.6494821406909,383.9192216922418
1533058134.351,1094.8288544658917,590.2652437674357,714.6728388640382,885.5417628806838,653.4829670493812
1533058134.355,1072.8062498322104,617.511402382323,640.0052012899199,861.9271316331127,903.986536948707
1533058134.359,1145.1689978254449,644.7575609972102,602.6713825028608,875.4202196455487,931.2161556615516
1533058134.3620002,1230.1087277510806,626.5872559004561,767.9975033808385,885.5417628806838,950.2763311193651
1533058134.3660002,1189.2142070928078,662.9092680334766,858.6669093935296,885.5417628806838,721.5542256256037
1533058134.37,1123.1463931917635,599.3410972855688,752.0066576510975,873.7344472568982,702.4940501677902
1533058134.3739998,1094.8288544658917,590.2652437674357,650.6657651097472,856.8663600155452,721.5542256256037
1533058134.3779998,1123.1463931917635,572.0949386706815,570.6678456257151,831.5659563793236,874.0356292881113
1533058134.3820002,1198.6533866680984,499.4509144046407,671.9978154582336,838.3125003855416,721.5542256256037
1533058134.3860002,1179.7750275175172,517.6212195013949,725.3334026838656,863.6129040217631,661.6524103044123
1533058134.39,1072.8062498322104,617.511402382323,655.9960470196609,870.3629024795973,835.9152783724844
1533058134.394,1035.0559746570377,626.5872559004561,682.6693019868927,831.5659563793236,767.8440197962618
1533058134.3979998,1101.1237885580822,526.6970730195279,629.3337147612608,809.6405519720191,988.396682034992
1533058134.401,1192.3584525759081,563.0190851525484,693.32986580672,829.8801839906731,950.2763311193651
1533058134.405,1120.0021477086634,581.1893902493026,842.6651409549569,850.1198160093271,947.5550421716141
1533058134.409,1025.6167950817471,563.0190851525484,783.9992718194112,851.8090428495938,789.6254842018262
1533058134.4129999,1047.6393997154287,581.1893902493026,671.9978154582336,823.1336399844552,721.5542256256037
1533058134.417,1088.5403634996912,544.8487800557942,666.66753354832,811.3263243606696,893.0958047459247
1533058134.421,1148.3132433085452,626.5872559004561,848.0063455737023,834.9409556082406,814.1338139669199
1533058134.425,1113.707213616473,626.5872559004561,938.6648288775616,845.0590443917596,966.6152176294275
1533058134.429,1044.4951542323283,635.6631094185892,832.0045771351295,828.1944116020227,816.855102914671
1533058134.4329998,1038.200220140138,762.7994509144046,794.6707583480703,809.6405519720191,705.2209155273194
1533058134.437,1075.9569384413005,626.5872559004561,720.003120773952,801.2047811255345,800.5162164046085
1533058134.441,1195.5026980590083,635.6631094185892,704.0013523353791,816.3870959782371,648.0403891538791
1533058134.444,1211.2368117264893,780.9697560111589,869.3383959221887,836.6267279968912,623.5320593887855
1533058134.448,1142.0247523423448,817.2917681441793,816.0028086965567,818.0728683668876,697.0514722722883
1533058134.4520001,1053.934333807619,699.231280166497,773.3387079995839,809.6405519720191,751.5051332861993
1533058134.456,1050.7836451985288,599.3410972855688,767.9975033808385,813.0120967493201,789.6254842018262
1533058134.46,1179.7750275175172,735.5532922995174,767.9975033808385,818.0728683668876,737.8931121356661
1533058134.464,1186.0635184837176,671.9851215516096,810.6725267866431,833.2517287679741,626.2533483365364
1533058134.468,1129.434884157964,617.511402382323,773.3387079995839,823.1336399844552,528.2311820997182
1533058134.4720001,1120.0021477086634,744.6477438781384,666.66753354832,804.5797803544515,912.1559802037382
1533058134.476,1151.4574887916453,744.6477438781384,565.3375637158015,816.3870959782371,958.4457743743963
1533058134.48,1245.8428414185616,735.5532922995174,549.3357952772287,831.5659563793236,786.9041952540753
1533058134.484,1277.3046256275336,726.4774387813842,709.3316342452929,858.5555868558117,724.2810909851329
1533058134.4870002,1179.7750275175172,780.9697560111589,906.6722147092479,870.3629024795973,748.7838443384484
1533058134.4910002,1082.245429407501,808.2159146260461,810.6725267866431,836.6267279968912,612.6413271860032
1533058134.495,1075.9569384413005,790.0456095292919,640.0052012899199,823.1336399844552,901.2652480009559
1533058134.4989998,1138.8740637332546,862.6896337953327,634.6639966711745,833.2517287679741,1206.222478914193
1533058134.5029998,1173.480093425327,862.6896337953327,767.9975033808385,863.6129040217631,732.4449578283859
1533058134.5070002,1142.0247523423448,844.5379267590665,736.0048892125247,882.1702181033828,770.5653087440128
1533058134.5110002,1101.1237885580822,790.0456095292919,645.3354831998336,863.6129040217631,697.0514722722883
1533058134.515,1044.4951542323283,699.231280166497,634.6639966711745,819.7586407555381,582.6904195254075
1533058134.519,1113.707213616473,771.8939024930257,533.334026838656,816.3870959782371,577.2422652181273
1533058134.5229998,1176.630782034417,808.2159146260461,549.3357952772287,845.0590443917596,628.9802136960657
1533058134.526,1104.2680340411823,771.8939024930257,709.3316342452929,848.4340436206767,917.6041345110184
1533058134.53,1035.0559746570377,771.8939024930257,671.9978154582336,853.4948152382442,1023.7901675910897
1533058134.534,1013.0333700233564,744.6477438781384,559.996359097056,836.6267279968912,917.6041345110184
1533058134.5379999,1094.8288544658917,708.325731745118,490.66992614168316,836.6267279968912,593.5811517281898
1533058134.542,1176.630782034417,644.7575609972102,602.6713825028608,885.5417628806838,604.471883930972
1533058134.546,1135.7298182501543,572.0949386706815,757.3369395610111,895.6633061158188,816.855102914671
1533058134.55,1113.707213616473,572.0949386706815,693.32986580672,878.7952188744658,789.6254842018262
1533058134.554,1104.2680340411823,608.4169508037019,645.3354831998336,873.7344472568982,822.3032572219512
1533058134.5579998,1157.7524228838358,572.0949386706815,645.3354831998336,888.9167621096009,797.7949274568575
1533058134.562,1220.67599130178,563.0190851525484,741.3351711224384,941.2033417706945,541.8487796620296
1533058134.566,1154.6081774007355,581.1893902493026,821.3330906064704,953.01065739448,762.4014419007598
1533058134.569,1126.2906386748637,463.12890227162023,783.9992718194112,953.01065739448,1238.9002519343178
1533058134.573,1079.1011839244006,472.20475578975334,650.6657651097472,936.146024604743,1184.4410145086285
1533058134.5770001,1091.6846089827916,617.511402382323,624.0034328513472,914.2171657458224,707.9422044750704
1533058134.581,1211.2368117264893,735.5532922995174,783.9992718194112,937.8317969933935,427.4877269151489
1533058134.585,1195.5026980590083,626.5872559004561,832.0045771351295,959.7606558523141,743.3412664429463
1533058134.589,1075.9569384413005,490.3750608865075,730.6636845937793,954.6998842347466,786.9041952540753
1533058134.593,1035.0559746570377,671.9851215516096,725.3334026838656,929.3960261469089,623.5320593887855
1533058134.5970001,1113.707213616473,771.8939024930257,634.6639966711745,944.5783409996116,835.9152783724844
1533058134.601,1258.4262664769524,799.1214630474251,666.66753354832,985.0610594885356,762.4014419007598
1533058134.605,1223.82023678488,690.1554266483638,917.3327785290752,990.1218311061032,514.6191609491849
1533058134.609,1145.1689978254449,717.4015852632511,879.998959742016,995.1791482720546,925.7680013542714
1533058134.6120002,1110.5629681333728,626.5872559004561,730.6636845937793,971.5645170244835,1056.4679406112145
1533058134.6160002,1101.1237885580822,454.05304875348713,608.0016644127744,973.2537438647502,800.5162164046085
1533058134.62,1204.9418776342989,717.4015852632511,597.3301778841153,991.8076034947537,874.0356292881113
1533058134.6239998,1195.5026980590083,908.1060975069743,661.3372516384063,980.0002878709681,822.3032572219512
1533058134.6279998,1085.389674890601,844.5379267590665,591.9998959742016,971.5645170244835,658.9311213566614
1533058134.6320002,1003.5941904480658,671.9851215516096,591.9998959742016,959.7606558523141,887.6476504386445
1533058134.6360002,1022.472549598647,671.9851215516096,479.998439613024,978.3145154823177,942.1068878643339
1533058134.64,1135.7298182501543,735.5532922995174,506.6716945802559,988.4326042658366,661.6524103044123
1533058134.644,1157.7524228838358,762.7994509144046,693.32986580672,993.4933758834042,705.2209155273194
1533058134.6479998,1088.5403634996912,708.325731745118,645.3354831998336,1012.0472355134077,882.2050725431425
1533058134.651,1044.4951542323283,644.7575609972102,554.6660771871424,973.2537438647502,841.3634326797646
1533058134.655,1041.3444656232382,735.5532922995174,528.0037449287423,929.3960261469089,759.6745765412306
1533058134.659,1116.851459099573,644.7575609972102,618.6622282326017,937.8317969933935,835.9152783724844
1533058134.6629999,1164.0409138500363,517.6212195013949,512.0019764901696,958.0714290120475,846.8060105752667
1533058134.667,1091.6846089827916,490.3750608865075,255.99552689066888,971.5645170244835,577.2422652181273
1533058134.671,1016.1776155064565,463.12890227162023,394.6702382190783,973.2537438647502,389.36737599952204
1533058134.675,1000.4499449649655,472.20475578975334,597.3301778841153,934.4567977644764,552.7395118648119
1533058134.679,1145.1689978254449,463.12890227162023,469.3378757931967,942.892568610961,773.292174103542
1533058134.6829998,1321.3498348948965,599.3410972855688,442.66462082596485,1020.4830063598923,884.9263614908936
1533058134.687,1245.8428414185616,644.7575609972102,602.6713825028608,1042.4084107671968,615.3626161337543
1533058134.691,1025.6167950817471,444.95859717486604,661.3372516384063,976.625288642051,501.0015633868735
1533058134.694,984.7158312974844,426.80689013859984,581.3393321543742,941.2033417706945,884.9263614908936
1533058134.698,1138.8740637332546,481.2992073683744,554.6660771871424,976.625288642051,811.4125250191689
1533058134.7020001,1226.9644822679804,408.63658504184565,629.3337147612608,1040.7226383785464,830.4727004769824
1533058134.706,1176.630782034417,363.2387193906921,528.0037449287423,1064.3372696261174,800.5162164046085
1533058134.71,1110.5629681333728,299.6705486427844,341.33465099344636,1027.2295503661103,536.4006253547494
1533058134.714,1097.9795430749818,354.162865872559,261.3367315094144,1001.9291467298888,765.1227308485109
1533058134.718,1233.2594163601707,463.12890227162023,202.67086237386866,1030.6010951434112,631.7015026438166
1533058134.7220001,1308.7599667105158,426.80689013859984,325.3328825548736,1057.5907256198993,514.6191609491849
1533058134.726,1211.2368117264893,417.73103662046674,544.0055133673151,1071.0838136323355,991.117970982743
1533058134.73,1248.9870869016618,472.20475578975334,506.6716945802559,1091.3234456509895,952.9976200671161
1533058134.7329998,1220.67599130178,499.4509144046407,463.99667117445125,1074.4588128612525,710.6634934228215
1533058134.7370002,1230.1087277510806,517.6212195013949,512.0019764901696,1069.398041243685,574.5209762703763
1533058134.7410002,1393.7061397621412,526.6970730195279,549.3357952772287,1099.759216497474,835.9152783724844
1533058134.745,1374.82778061156,635.6631094185892,581.3393321543742,1099.759216497474,1007.4568574928054
1533058134.7489998,1318.1991462858064,708.325731745118,554.6660771871424,1114.9380768985604,634.4227915915677
1533058134.7529998,1296.1765416521248,644.7575609972102,506.6716945802559,1128.4346193626127,560.9089551198431
1533058134.7570002,1305.6157212274154,671.9851215516096,416.00228856756473,1098.0734441088237,863.144897085329
1533058134.7610002,1393.7061397621412,690.1554266483638,479.998439613024,1099.759216497474,901.2652480009559
1533058134.765,1403.1453193374318,717.4015852632511,671.9978154582336,1150.3600237699172,789.6254842018262
1533058134.769,1302.4714757443153,653.8334145153434,645.3354831998336,1138.5527081461316,626.2533483365364
1533058134.7729998,1239.5479073263712,617.511402382323,522.6625403099969,1087.9519008736886,571.7996873226253
1533058134.776,1255.2820209938523,681.0795731302308,357.3364194320191,1074.4588128612525,786.9041952540753
1533058134.78,1355.9558645869688,671.9851215516096,378.6684697805056,1101.4449888861245,942.1068878643339
1533058134.784,1377.9784692206501,635.6631094185892,522.6625403099969,1116.627303738827,789.6254842018262
1533058134.7879999,1271.0096915353433,590.2652437674357,394.6702382190783,1098.0734441088237,555.4608008125629
1533058134.792,1198.6533866680984,526.6970730195279,362.6667013419328,1069.398041243685,574.5209762703763
1533058134.796,1220.67599130178,508.5267679227738,474.66815770311035,1057.5907256198993,852.2541648825468
1533058134.8,1318.1991462858064,535.7729265376611,549.3357952772287,1077.8303576385536,974.7790844726806
1533058134.804,1315.054900802706,526.6970730195279,608.0016644127744,1108.1915328923426,694.324606912759
1533058134.8079998,1230.1087277510806,553.9432316344153,570.6678456257151,1135.1811633688308,669.8218535594435
1533058134.812,1142.0247523423448,635.6631094185892,544.0055133673151,1113.2523045099101,1108.2003126773748
1533058134.816,1164.0409138500363,572.0949386706815,426.6628523873921,1106.505760503692,1208.949344273722
1533058134.819,1305.6157212274154,472.20475578975334,474.66815770311035,1119.9988485161282,822.3032572219512
1533058134.823,1343.3724395285778,535.7729265376611,650.6657651097472,1125.0596201336957,822.3032572219512
