timestamps,TP9,AF7,AF8,TP10,Right AUX
1533044853.336,496.7520490510654,532.099382684557,473.8371054980833,459.4577723430545,428.00530989784835
1533044853.339,607.1421782811101,645.6895056374675,574.3506800399097,508.5604586830392,832.7191930091077
1533044853.343,545.0481721497268,657.6521606040509,638.9728509163472,536.6170843184956,955.0081281190326
1533044853.3470001,465.7085784695092,579.9255140043875,624.6074673108229,522.5887715007674,823.9834172174147
1533044853.351,417.41245537084774,544.0497933778889,574.3506800399097,484.0091155130468,780.3105012458383
1533044853.355,524.3548800847797,514.1615223713077,430.77036181273957,487.51439797851094,634.7301393493245
1533044853.359,672.6909538968767,448.39753073822766,481.0271490836528,617.2888617152727,658.0215661359135
1533044853.363,555.3983506663359,508.1863170246416,624.6074673108229,575.1967403062162,806.5178286209173
1533044853.367,413.964750854735,538.0745880312229,624.6074673108229,441.9241770598622,832.7191930091077
1533044853.371,396.7120983376298,544.0497933778889,466.6617654781285,434.9064291730622,681.318955909391
1533044853.375,448.45592595240396,538.0745880312229,344.60746731082287,399.83205565080567,625.9943635576316
1533044853.379,551.9506461502231,514.1615223713077,409.22963818726043,417.37283388986987,748.2832986675564
1533044853.3820002,551.9506461502231,538.0745880312229,545.6346163944756,487.51439797851094,911.3352121474561
1533044853.3860002,514.0047015681706,526.1119330646395,574.3506800399097,522.5887715007674,704.61038269598
1533044853.39,417.41245537084774,538.0745880312229,581.5407236254791,508.5604586830392,486.2398398512093
1533044853.394,407.06227685423875,526.1119330646395,545.6346163944756,476.99855058211864,541.5584692160802
1533044853.3979998,576.0987076995539,502.19886740472435,560.0,512.0657411485033,611.4387125627356
1533044853.4020002,555.3983506663359,502.19886740472435,603.0814472509584,522.5887715007674,669.6732425160965
1533044853.4060001,431.2103384035695,526.1119330646395,588.716063645434,512.0657411485033,823.9834172174147
1533044853.41,376.0188062726825,567.9628590378042,524.0938927689965,462.96305480851856,911.3352121474561
1533044853.414,407.06227685423875,561.9876536911382,394.8642545817361,375.28071248081335,748.2832986675564
1533044853.418,541.6004676336141,490.2484567113923,351.7975108963924,392.8214907198775,588.1472857761466
1533044853.421,545.0481721497268,478.28580174480896,430.77036181273957,420.87811635533393,643.4659151410175
1533044853.425,462.26087395339647,460.3479414315596,560.0,462.96305480851856,952.0981905174311
1533044853.429,413.964750854735,460.3479414315596,538.4592763745209,484.0091155130468,890.9537229624686
1533044853.4329998,420.8601598869605,442.4223253915616,588.716063645434,424.38339882079805,535.7385940128772
1533044853.437,545.0481721497268,388.6087444518137,674.8642545817361,441.9241770598622,637.6400769509261
1533044853.441,555.3983506663359,340.7826131319831,746.6617654781285,484.0091155130468,1033.624147257381
1533044853.445,486.40893550272716,376.6460894852304,667.6889145617812,508.5604586830392,1051.0897358538784
1533044853.449,472.6039875017347,394.58394979847975,488.2024891036076,505.0551762175751,867.6622961758798
1533044853.4529998,458.80610446901295,340.7826131319831,459.4864254581736,427.895864242134,669.6732425160965
1533044853.457,569.1962336990575,334.79516351206576,358.9728509163472,417.37283388986987,707.5203202975814
1533044853.461,617.492356797719,376.6460894852304,409.22963818726043,448.93474199079037,873.4821713790827
1533044853.464,507.1022275676744,406.546604765063,646.1481909363021,434.9064291730622,969.5637791139285
1533044853.468,465.7085784695092,394.58394979847975,588.716063645434,434.9064291730622,992.861168887406
1533044853.4720001,417.41245537084774,460.3479414315596,488.2024891036076,434.9064291730622,681.318955909391
1533044853.476,510.5569970520579,448.39753073822766,452.31108543821875,417.37283388986987,544.4684068176816
1533044853.48,614.0446522816063,430.4596704249783,488.2024891036076,431.40114670759806,797.7820528292243
1533044853.484,541.6004676336141,532.099382684557,581.5407236254791,494.53214586531095,946.2723523273396
1533044853.488,462.26087395339647,550.0372429978063,603.0814472509584,505.0551762175751,972.4796797024186
1533044853.492,376.0188062726825,538.0745880312229,495.3778291235625,427.895864242134,730.8117470841704
1533044853.496,469.15628298562194,496.22366205805827,366.14819093630206,452.4472074121263,628.9102641461216
1533044853.5,548.5029416341104,472.31059639814293,516.9185527490416,533.1118018530316,920.0709879391492
1533044853.504,451.9106954367875,514.1615223713077,703.5803182271701,543.6348322052957,992.861168887406
1533044853.5070002,396.7120983376298,538.0745880312229,603.0814472509584,522.5887715007674,1024.888371465688
1533044853.5110002,320.82020917352486,544.0497933778889,538.4592763745209,476.99855058211864,949.182289928941
1533044853.515,386.3619198210208,496.22366205805827,488.2024891036076,431.40114670759806,678.403055320901
1533044853.519,517.4524060842834,490.2484567113923,502.56787270913196,452.4472074121263,771.5747254541453
1533044853.5229998,438.1128124040657,556.0124483444722,610.2567872709132,505.0551762175751,943.3624147257381
1533044853.5270002,389.8166893054043,550.0372429978063,617.432127290868,526.1012369221033,1033.624147257381
1533044853.5310001,372.56403678829906,603.8385796643029,452.31108543821875,480.50383304758276,896.7735981656716
1533044853.535,424.30786440307327,639.7143002908016,387.68891456178125,424.38339882079805,559.0300207994661
1533044853.539,576.0987076995539,627.7516453242182,516.9185527490416,498.03742833077507,529.9127558227857
1533044853.543,534.7050586013886,669.6025712973828,581.5407236254791,599.7480834762085,754.1091368576479
1533044853.546,455.3583999529002,687.5404316106321,631.7975108963924,582.2144881930162,806.5178286209173
1533044853.55,403.61457233812604,753.3044232437121,667.6889145617812,512.0657411485033,666.7573419276065
1533044853.554,434.65804291968226,789.1801438702108,682.0542981673055,494.53214586531095,838.5450311991992
1533044853.5579998,631.2902398304408,717.4287026172134,509.7432127290868,498.03742833077507,748.2832986675564
1533044853.562,593.3442952483883,699.5030865772154,495.3778291235625,480.50383304758276,690.0487687141955
1533044853.566,458.80610446901295,729.3913575837968,782.567872709132,519.0834890353033,966.6538415123271
1533044853.57,451.9106954367875,717.4287026172134,768.2024891036076,526.1012369221033,847.2808069908923
1533044853.574,472.6039875017347,705.4782919238814,603.0814472509584,480.50383304758276,646.375852742619
1533044853.5779998,617.492356797719,675.5900209173002,660.5135745418264,533.1118018530316,774.4906260426353
1533044853.582,610.5969477654935,657.6521606040509,775.3778291235625,561.168427488488,893.8636605640702
1533044853.586,517.4524060842834,669.6025712973828,761.0271490836528,571.691457840752,931.7167013324436
1533044853.589,445.00822143629125,669.6025712973828,610.2567872709132,512.0657411485033,838.5450311991992
1533044853.593,420.8601598869605,633.7390949441356,581.5407236254791,441.9241770598622,821.0734796158133
1533044853.5970001,565.7485291829448,561.9876536911382,545.6346163944756,480.50383304758276,806.5178286209173
1533044853.601,555.3983506663359,609.8137850109688,588.716063645434,480.50383304758276,821.0734796158133
1533044853.605,465.7085784695092,681.5652262639661,761.0271490836528,519.0834890353033,1004.5068822807006
1533044853.609,451.9106954367875,675.5900209173002,761.0271490836528,536.6170843184956,914.2451497490576
1533044853.613,417.41245537084774,657.6521606040509,696.4049782072152,462.96305480851856,658.0215661359135
1533044853.617,576.0987076995539,621.7764399775522,610.2567872709132,512.0657411485033,815.2536044126103
1533044853.621,665.7884798963804,585.9007193510536,696.4049782072152,613.7835792498086,1071.471225038866
1533044853.625,503.6545230515616,591.8881689709709,796.9185527490416,592.7375185452803,856.0165827825853
1533044853.6279998,438.1128124040657,639.7143002908016,753.8371054980832,550.6453971362238,623.08442595603
1533044853.6320002,413.964750854735,687.5404316106321,696.4049782072152,543.6348322052957,561.9399584010677
1533044853.6360002,496.7520490510654,663.6273659507168,646.1481909363021,533.1118018530316,483.3299022496078
1533044853.64,562.3008246668321,615.8012346308861,660.5135745418264,536.6170843184956,733.7276476726604
1533044853.644,493.3043445349527,621.7764399775522,746.6617654781285,515.5782065698393,1033.624147257381
1533044853.6479998,482.9541660183437,603.8385796643029,696.4049782072152,501.549893752111,844.3649064024022
1533044853.6520002,458.80610446901295,615.8012346308861,646.1481909363021,484.0091155130468,471.6782258694248
1533044853.6560001,510.5569970520579,585.9007193510536,588.716063645434,473.4860851607827,291.16072379302756
1533044853.66,562.3008246668321,514.1615223713077,631.7975108963924,480.50383304758276,765.7548502509424
1533044853.664,465.7085784695092,520.1367277179736,782.567872709132,498.03742833077507,1016.1525956739949
1533044853.668,427.76263388745673,520.1367277179736,739.4864254581736,487.51439797851094,695.8746069042869
1533044853.671,362.21385827169007,496.22366205805827,696.4049782072152,420.87811635533393,570.6757341927606
1533044853.675,451.9106954367875,478.28580174480896,660.5135745418264,431.40114670759806,588.1472857761466
1533044853.679,569.1962336990575,466.33539105147696,631.7975108963924,480.50383304758276,739.5475228758634
1533044853.6829998,520.9001106003961,412.521810111729,660.5135745418264,484.0091155130468,940.4524771241366
1533044853.687,451.9106954367875,376.6460894852304,710.7703618127396,431.40114670759806,899.6894987541617
1533044853.691,393.26439382151705,418.49701545839497,689.2296381872604,410.3550860030698,663.8474043260051
1533044853.695,507.1022275676744,388.6087444518137,545.6346163944756,424.38339882079805,593.9671609793496
1533044853.699,669.2361844124932,310.8820978521505,516.9185527490416,501.549893752111,561.9399584010677
1533044853.7029998,565.7485291829448,292.9564818121525,732.3110854382188,554.1578625575597,754.1091368576479
1533044853.707,507.1022275676744,263.05596653231976,696.4049782072152,519.0834890353033,940.4524771241366
1533044853.711,503.6545230515616,239.1429008724045,624.6074673108229,487.51439797851094,707.5203202975814
1533044853.714,517.4524060842834,215.2298352124892,617.432127290868,452.4472074121263,486.2398398512093
1533044853.718,624.3948307982153,197.29197489923988,617.432127290868,487.51439797851094,675.4931177192994
1533044853.7220001,558.8460551824486,221.2050405591552,703.5803182271701,526.1012369221033,969.5637791139285
1533044853.726,479.50646150223093,221.2050405591552,696.4049782072152,508.5604586830392,1019.0625332755965
1533044853.73,434.65804291968226,191.3167695525739,524.0938927689965,469.98080269531863,867.6622961758798
1533044853.734,427.76263388745673,167.4037038926586,402.05429816730555,413.86755142440575,716.2560960892745
1533044853.738,569.1962336990575,251.10555583898787,409.22963818726043,431.40114670759806,707.5203202975814
1533044853.742,614.0446522816063,292.9564818121525,524.0938927689965,547.1401146707598,1007.416819882302
1533044853.746,510.5569970520579,179.35411458599057,710.7703618127396,557.6631450230238,1001.596944679099
1533044853.75,327.7226831740211,119.56532829957655,840.0,406.84980353760574,716.2560960892745
1533044853.7529998,300.11985214030693,179.35411458599057,761.0271490836528,333.19577402762866,658.0215661359135
1533044853.7570002,514.0047015681706,203.26718024590588,739.4864254581736,413.86755142440575,628.9102641461216
1533044853.7610002,538.1527631175013,227.18024590582112,825.6346163944756,494.53214586531095,864.7463955873897
1533044853.765,441.5605169201785,286.96903219223515,789.7432127290868,473.4860851607827,1059.8255116455714
1533044853.769,400.1668678220133,280.9938268455692,804.0938927689965,431.40114670759806,835.6350935975978
1533044853.7729998,424.30786440307327,298.9316871588185,761.0271490836528,406.84980353760574,480.41400166111777
1533044853.7770002,593.3442952483883,346.7578184786491,588.716063645434,413.86755142440575,608.5287749611341
1533044853.7810001,627.842535314328,322.8447528187338,574.3506800399097,448.93474199079037,812.3377038241202
1533044853.785,476.05875698611817,322.8447528187338,732.3110854382188,476.99855058211864,774.4906260426353
1533044853.789,389.8166893054043,298.9316871588185,804.0938927689965,501.549893752111,812.3377038241202
1533044853.793,355.3184492394646,286.96903219223515,732.3110854382188,459.4577723430545,911.3352121474561
1533044853.796,479.50646150223093,304.90689250548445,638.9728509163472,438.41889459439807,823.9834172174147
1533044853.8,572.651003183441,334.79516351206576,717.9457018326945,498.03742833077507,893.8636605640702
1533044853.804,507.1022275676744,364.69567879189844,703.5803182271701,526.1012369221033,1001.596944679099
1533044853.8079998,434.65804291968226,376.6460894852304,610.2567872709132,508.5604586830392,890.9537229624686
1533044853.812,386.3619198210208,424.4844650783123,560.0,484.0091155130468,637.6400769509261
1533044853.816,517.4524060842834,430.4596704249783,552.8246599800451,487.51439797851094,489.1497774528108
1533044853.82,589.8965907322755,424.4844650783123,660.5135745418264,522.5887715007674,765.7548502509424
1533044853.824,541.6004676336141,490.2484567113923,667.6889145617812,571.691457840752,955.0081281190326
1533044853.8279998,517.4524060842834,532.099382684557,610.2567872709132,571.691457840752,791.9562146391328
1533044853.832,448.45592595240396,544.0497933778889,682.0542981673055,540.1295497398315,727.9018094825689
1533044853.836,545.0481721497268,532.099382684557,682.0542981673055,540.1295497398315,777.4005636442369
1533044853.839,651.9905968636588,436.43487577164433,638.9728509163472,529.6065193875675,751.1932362691579
1533044853.843,586.4488862161628,430.4596704249783,804.0938927689965,592.7375185452803,719.1660336908759
1533044853.8470001,538.1527631175013,520.1367277179736,840.0,624.2994266462009,710.430257899183
1533044853.851,441.5605169201785,538.0745880312229,761.0271490836528,540.1295497398315,748.2832986675564
1533044853.855,482.9541660183437,442.4223253915616,660.5135745418264,498.03742833077507,570.6757341927606
1533044853.859,655.4383013797715,406.546604765063,660.5135745418264,543.6348322052957,730.8117470841704
1533044853.863,607.1421782811101,436.43487577164433,796.9185527490416,575.1967403062162,943.3624147257381
1533044853.867,517.4524060842834,490.2484567113923,804.0938927689965,568.186175375288,925.8908631423521
1533044853.871,500.2068185354489,526.1119330646395,689.2296381872604,561.168427488488,727.9018094825689
1533044853.875,538.1527631175013,526.1119330646395,603.0814472509584,526.1012369221033,672.583180117698
1533044853.8779998,641.6404183470497,532.099382684557,624.6074673108229,515.5782065698393,838.5450311991992
1533044853.8820002,586.4488862161628,532.099382684557,739.4864254581736,554.1578625575597,885.1278847723772
1533044853.8860002,517.4524060842834,550.0372429978063,775.3778291235625,568.186175375288,957.9180657206341
1533044853.89,458.80610446901295,573.9503086577215,682.0542981673055,487.51439797851094,704.61038269598
1533044853.894,445.00822143629125,526.1119330646395,545.6346163944756,424.38339882079805,366.860842342886
1533044853.8979998,586.4488862161628,502.19886740472435,524.0938927689965,459.4577723430545,462.9484130646203
1533044853.9020002,582.9941167317793,579.9255140043875,717.9457018326945,522.5887715007674,829.8092554075063
1533044853.9060001,472.6039875017347,615.8012346308861,811.283936354566,533.1118018530316,1039.444022460584
1533044853.91,424.30786440307327,609.8137850109688,746.6617654781285,469.98080269531863,975.38961730402
1533044853.914,448.45592595240396,603.8385796643029,631.7975108963924,455.9524898775904,625.9943635576316
1533044853.918,582.9941167317793,603.8385796643029,581.5407236254791,522.5887715007674,655.111628534312
1533044853.921,589.8965907322755,627.7516453242182,703.5803182271701,533.1118018530316,975.38961730402
1533044853.925,482.9541660183437,615.8012346308861,811.283936354566,533.1118018530316,1036.5340848589824
1533044853.929,413.964750854735,615.8012346308861,775.3778291235625,494.53214586531095,920.0709879391492
1533044853.9329998,400.1668678220133,627.7516453242182,653.323530956257,399.83205565080567,643.4659151410175
1533044853.937,520.9001106003961,591.8881689709709,574.3506800399097,420.87811635533393,567.7657965911592
1533044853.941,579.5464122156666,597.8633743176368,725.1210418526492,476.99855058211864,925.8908631423521
1533044853.945,496.7520490510654,645.6895056374675,811.283936354566,476.99855058211864,1202.4959359404836
1533044853.949,431.2103384035695,651.6647109841334,696.4049782072152,452.4472074121263,1010.3267574839035
1533044853.9529998,382.91421530490805,651.6647109841334,739.4864254581736,445.42945952532625,870.5722337774812
1533044853.957,510.5569970520579,597.8633743176368,725.1210418526492,473.4860851607827,856.0165827825853
1533044853.96,603.6944737649973,573.9503086577215,761.0271490836528,522.5887715007674,858.9265203841867
1533044853.964,531.2502891170051,615.8012346308861,739.4864254581736,575.1967403062162,925.8908631423521
1533044853.968,434.65804291968226,663.6273659507168,746.6617654781285,519.0834890353033,987.0353306973145
1533044853.9720001,396.7120983376298,633.7390949441356,875.8914036653889,480.50383304758276,751.1932362691579
1533044853.976,582.9941167317793,532.099382684557,782.567872709132,557.6631450230238,503.7054284477067
1533044853.98,651.9905968636588,627.7516453242182,768.2024891036076,533.1118018530316,655.111628534312
1533044853.984,507.1022275676744,747.3292178970461,883.0814472509584,487.51439797851094,823.9834172174147
1533044853.988,448.45592595240396,753.3044232437121,768.2024891036076,466.4755202298545,640.5559775394161
1533044853.992,344.9682707228556,831.0310698433753,674.8642545817361,326.17802614082865,678.403055320901
1533044853.996,438.1128124040657,866.8945461966226,524.0938927689965,294.61611803990814,660.9374667244035
1533044854.0,610.5969477654935,801.1305545635427,481.0271490836528,375.28071248081335,623.08442595603
1533044854.0029998,482.9541660183437,807.11800418346,660.5135745418264,417.37283388986987,885.1278847723772
1533044854.0070002,386.3619198210208,801.1305545635427,646.1481909363021,410.3550860030698,1056.9155740439699
1533044854.0110002,358.7661537555773,795.1553492168767,603.0814472509584,375.28071248081335,885.1278847723772
1533044854.015,403.61457233812604,777.2174889036274,588.716063645434,364.76486508442105,687.138831112594
1533044854.019,517.4524060842834,699.5030865772154,624.6074673108229,378.7931779021493,957.9180657206341
1533044854.0229998,507.1022275676744,717.4287026172134,717.9457018326945,420.87811635533393,960.8339663091241
1533044854.0270002,482.9541660183437,801.1305545635427,775.3778291235625,462.96305480851856,984.1253930957131
1533044854.0310001,451.9106954367875,872.88199581654,689.2296381872604,448.93474199079037,821.0734796158133
1533044854.035,500.2068185354489,837.0062751900414,595.8914036653889,410.3550860030698,561.9399584010677
1533044854.039,600.2467692488846,771.2422835569614,638.9728509163472,434.9064291730622,806.5178286209173
1533044854.043,562.3008246668321,777.2174889036274,674.8642545817361,476.99855058211864,1144.2614059871228
1533044854.046,538.1527631175013,789.1801438702108,617.432127290868,501.549893752111,992.861168887406
1533044854.05,462.26087395339647,860.9193408499566,531.283936354566,434.9064291730622,623.08442595603
1533044854.054,448.45592595240396,860.9193408499566,481.0271490836528,406.84980353760574,529.9127558227857
1533044854.0579998,620.9471262821025,813.093209530126,524.0938927689965,484.0091155130468,742.4634234643534
1533044854.062,638.192713830937,777.2174889036274,603.0814472509584,529.6065193875675,984.1253930957131
1533044854.066,596.7990647327717,801.1305545635427,703.5803182271701,582.2144881930162,922.9809255407506
1533044854.07,500.2068185354489,801.1305545635427,789.7432127290868,550.6453971362238,998.681044090609
1533044854.074,445.00822143629125,759.2796285903781,653.323530956257,452.4472074121263,716.2560960892745
1533044854.0779998,589.8965907322755,705.4782919238814,610.2567872709132,427.895864242134,608.5287749611341
1533044854.082,565.7485291829448,693.515636957298,710.7703618127396,441.9241770598622,908.4252745458547
1533044854.085,458.80610446901295,717.4287026172134,753.8371054980832,498.03742833077507,888.0437853608672
1533044854.089,434.65804291968226,717.4287026172134,761.0271490836528,473.4860851607827,925.8908631423521
1533044854.093,434.65804291968226,717.4287026172134,631.7975108963924,410.3550860030698,742.4634234643534
1533044854.0970001,545.0481721497268,687.5404316106321,588.716063645434,469.98080269531863,611.4387125627356
1533044854.101,607.1421782811101,699.5030865772154,739.4864254581736,592.7375185452803,850.1907445924937
1533044854.105,562.3008246668321,729.3913575837968,789.7432127290868,641.840204885265,1001.596944679099
1533044854.109,503.6545230515616,729.3913575837968,703.5803182271701,557.6631450230238,730.8117470841704
1533044854.113,448.45592595240396,723.4161522371307,660.5135745418264,501.549893752111,515.3571048278898
1533044854.117,586.4488862161628,699.5030865772154,617.432127290868,501.549893752111,602.7029367710426
1533044854.121,672.6909538968767,675.5900209173002,631.7975108963924,505.0551762175751,547.3843074061717
1533044854.125,493.3043445349527,687.5404316106321,854.3506800399097,487.51439797851094,902.5994363557631
1533044854.1279998,396.7120983376298,723.4161522371307,890.2567872709132,441.9241770598622,975.38961730402
1533044854.1320002,382.91421530490805,741.35401255038,710.7703618127396,382.29846036761336,500.7954908461052
1533044854.1360002,479.50646150223093,729.3913575837968,653.323530956257,396.3267731853416,655.111628534312
1533044854.14,572.651003183441,681.5652262639661,761.0271490836528,438.41889459439807,917.1550873506591
1533044854.144,493.3043445349527,639.7143002908016,840.0,431.40114670759806,1004.5068822807006
1533044854.1479998,472.6039875017347,675.5900209173002,753.8371054980832,455.9524898775904,902.5994363557631
1533044854.1520002,438.1128124040657,699.5030865772154,581.5407236254791,427.895864242134,681.318955909391
1533044854.1560001,469.15628298562194,633.7390949441356,502.56787270913196,350.72936931082097,669.6732425160965
1533044854.16,596.7990647327717,615.8012346308861,603.0814472509584,427.895864242134,625.9943635576316
1533044854.164,507.1022275676744,615.8012346308861,782.567872709132,487.51439797851094,955.0081281190326
1533044854.168,393.26439382151705,603.8385796643029,818.4592763745209,462.96305480851856,1126.7958173906254
1533044854.171,324.2679136896376,603.8385796643029,703.5803182271701,396.3267731853416,803.6019280324273
1533044854.175,369.1163322721863,520.1367277179736,552.8246599800451,333.19577402762866,707.5203202975814
1533044854.179,534.7050586013886,573.9503086577215,538.4592763745209,382.29846036761336,821.0734796158133
1533044854.1829998,489.8566400188399,645.6895056374675,732.3110854382188,427.895864242134,856.0165827825853
1533044854.187,427.76263388745673,609.8137850109688,825.6346163944756,438.41889459439807,1054.0056364423685
1533044854.191,372.56403678829906,579.9255140043875,753.8371054980832,424.38339882079805,1013.2426580723935
1533044854.195,403.61457233812604,561.9876536911382,638.9728509163472,385.8037428330775,774.4906260426353
1533044854.199,569.1962336990575,567.9628590378042,638.9728509163472,427.895864242134,885.1278847723772
1533044854.2029998,541.6004676336141,603.8385796643029,660.5135745418264,501.549893752111,917.1550873506591
1533044854.207,472.6039875017347,645.6895056374675,631.7975108963924,501.549893752111,853.1006821940953
1533044854.21,431.2103384035695,669.6025712973828,574.3506800399097,427.895864242134,812.3377038241202
1533044854.214,438.1128124040657,675.5900209173002,502.56787270913196,406.84980353760574,678.403055320901
1533044854.218,586.4488862161628,681.5652262639661,581.5407236254791,487.51439797851094,724.9918718809674
1533044854.2220001,589.8965907322755,669.6025712973828,674.8642545817361,526.1012369221033,838.5450311991992
1533044854.226,534.7050586013886,687.5404316106321,638.9728509163472,554.1578625575597,829.8092554075063
1533044854.23,448.45592595240396,723.4161522371307,631.7975108963924,522.5887715007674,838.5450311991992
1533044854.234,413.964750854735,741.35401255038,603.0814472509584,476.99855058211864,660.9374667244035
1533044854.238,627.842535314328,735.3665629304627,545.6346163944756,543.6348322052957,570.6757341927606
1533044854.242,676.1386584129895,711.4534972705475,653.323530956257,585.7197706584803,759.9290120608508
1533044854.246,576.0987076995539,699.5030865772154,689.2296381872604,603.2605488975445,888.0437853608672
1533044854.25,514.0047015681706,711.4534972705475,624.6074673108229,543.6348322052957,934.6266389340451
1533044854.2529998,413.964750854735,699.5030865772154,624.6074673108229,448.93474199079037,963.7439039107255
1533044854.2570002,565.7485291829448,627.7516453242182,581.5407236254791,473.4860851607827,893.8636605640702
1533044854.2610002,655.4383013797715,621.7764399775522,610.2567872709132,529.6065193875675,826.8993178059047
1533044854.265,517.4524060842834,603.8385796643029,703.5803182271701,526.1012369221033,925.8908631423521
1533044854.269,496.7520490510654,645.6895056374675,624.6074673108229,512.0657411485033,681.318955909391
1533044854.2729998,489.8566400188399,717.4287026172134,509.7432127290868,448.93474199079037,445.4768614812343
1533044854.2770002,538.1527631175013,669.6025712973828,538.4592763745209,403.3445210721416,637.6400769509261
1533044854.2810001,600.2467692488846,675.5900209173002,567.1753400199549,455.9524898775904,867.6622961758798
1533044854.285,617.492356797719,729.3913575837968,466.6617654781285,519.0834890353033,1042.359923049074
1533044854.289,624.3948307982153,675.5900209173002,516.9185527490416,596.2428010107444,998.681044090609
1533044854.293,448.45592595240396,609.8137850109688,624.6074673108229,501.549893752111,710.430257899183
1533044854.296,479.50646150223093,544.0497933778889,560.0,413.86755142440575,640.5559775394161
1533044854.3,576.0987076995539,526.1119330646395,703.5803182271701,445.42945952532625,838.5450311991992
1533044854.304,465.7085784695092,621.7764399775522,890.2567872709132,466.4755202298545,1021.9784338640865
1533044854.3079998,410.5099813703515,669.6025712973828,883.0814472509584,466.4755202298545,1147.1773065756129
1533044854.312,334.6180922062466,633.7390949441356,753.8371054980832,413.86755142440575,879.3080095691741
1533044854.316,455.3583999529002,591.8881689709709,653.323530956257,445.42945952532625,445.4768614812343
1533044854.32,600.2467692488846,603.8385796643029,753.8371054980832,508.5604586830392,727.9018094825689
1533044854.324,562.3008246668321,651.6647109841334,840.0,547.1401146707598,1193.7601601487906
1533044854.3279998,558.8460551824486,657.6521606040509,782.567872709132,575.1967403062162,981.2154554941116
1533044854.332,455.3583999529002,615.8012346308861,696.4049782072152,494.53214586531095,818.1635420142118
1533044854.335,472.6039875017347,603.8385796643029,667.6889145617812,459.4577723430545,899.6894987541617
1533044854.339,645.0881228631625,579.9255140043875,674.8642545817361,568.186175375288,949.182289928941
1533044854.343,572.651003183441,585.9007193510536,674.8642545817361,582.2144881930162,893.8636605640702
1533044854.3470001,476.05875698611817,633.7390949441356,682.0542981673055,547.1401146707598,759.9290120608508
1533044854.351,417.41245537084774,687.5404316106321,667.6889145617812,469.98080269531863,579.4115099844537
1533044854.355,451.9106954367875,669.6025712973828,581.5407236254791,455.9524898775904,413.44965890295236
1533044854.359,645.0881228631625,609.8137850109688,560.0,522.5887715007674,634.7301393493245
1533044854.363,576.0987076995539,633.7390949441356,667.6889145617812,484.0091155130468,1100.5884900155463
1533044854.367,424.30786440307327,633.7390949441356,667.6889145617812,484.0091155130468,1059.8255116455714
1533044854.371,403.61457233812604,651.6647109841334,631.7975108963924,491.0268633998469,870.5722337774812
1533044854.375,472.6039875017347,657.6521606040509,516.9185527490416,434.9064291730622,532.8226934243872
1533044854.3779998,586.4488862161628,597.8633743176368,545.6346163944756,452.4472074121263,660.9374667244035
1533044854.3820002,562.3008246668321,615.8012346308861,674.8642545817361,519.0834890353033,1033.624147257381
1533044854.3860002,486.40893550272716,663.6273659507168,610.2567872709132,536.6170843184956,943.3624147257381
1533044854.39,372.56403678829906,663.6273659507168,574.3506800399097,466.4755202298545,821.0734796158133
1533044854.394,362.21385827169007,675.5900209173002,574.3506800399097,434.9064291730622,634.7301393493245
1533044854.3979998,576.0987076995539,651.6647109841334,545.6346163944756,512.0657411485033,538.6485316144787
1533044854.4020002,607.1421782811101,645.6895056374675,667.6889145617812,550.6453971362238,666.7573419276065
1533044854.4060001,527.8025846008924,693.515636957298,832.8246599800451,596.2428010107444,928.8067637308421
1533044854.41,524.3548800847797,723.4161522371307,775.3778291235625,582.2144881930162,885.1278847723772
1533044854.414,486.40893550272716,687.5404316106321,624.6074673108229,501.549893752111,529.9127558227857
1533044854.417,576.0987076995539,651.6647109841334,617.432127290868,505.0551762175751,428.00530989784835
1533044854.421,614.0446522816063,693.515636957298,753.8371054980832,561.168427488488,742.4634234643534
1533044854.425,510.5569970520579,699.5030865772154,753.8371054980832,557.6631450230238,914.2451497490576
1533044854.429,472.6039875017347,669.6025712973828,631.7975108963924,487.51439797851094,791.9562146391328
1533044854.4329998,469.15628298562194,687.5404316106321,495.3778291235625,473.4860851607827,826.8993178059047
1533044854.437,576.0987076995539,657.6521606040509,437.94570183269445,455.9524898775904,777.4005636442369
1533044854.441,617.492356797719,633.7390949441356,516.9185527490416,431.40114670759806,707.5203202975814
1533044854.445,514.0047015681706,633.7390949441356,696.4049782072152,501.549893752111,917.1550873506591
1533044854.449,451.9106954367875,639.7143002908016,696.4049782072152,522.5887715007674,989.9452682989161
1533044854.4529998,386.3619198210208,657.6521606040509,595.8914036653889,452.4472074121263,614.3486501643371
1533044854.457,479.50646150223093,633.7390949441356,574.3506800399097,424.38339882079805,480.41400166111777
1533044854.46,586.4488862161628,651.6647109841334,710.7703618127396,459.4577723430545,885.1278847723772
1533044854.464,527.8025846008924,669.6025712973828,703.5803182271701,547.1401146707598,949.182289928941
1533044854.468,462.26087395339647,675.5900209173002,682.0542981673055,533.1118018530316,957.9180657206341
1533044854.4720001,389.8166893054043,651.6647109841334,667.6889145617812,441.9241770598622,917.1550873506591
1533044854.476,496.7520490510654,633.7390949441356,574.3506800399097,441.9241770598622,602.7029367710426
1533044854.48,641.6404183470497,597.8633743176368,653.323530956257,491.0268633998469,777.4005636442369
1533044854.484,555.3983506663359,615.8012346308861,746.6617654781285,498.03742833077507,1086.0328390206505
1533044854.488,445.00822143629125,609.8137850109688,653.323530956257,452.4472074121263,768.6647878525439
1533044854.492,379.4665107887953,591.8881689709709,588.716063645434,392.8214907198775,559.0300207994661
1533044854.496,465.7085784695092,544.0497933778889,531.283936354566,420.87811635533393,451.2967366844373
1533044854.5,593.3442952483883,526.1119330646395,567.1753400199549,462.96305480851856,701.7004450943784
1533044854.5029998,517.4524060842834,603.8385796643029,725.1210418526492,459.4577723430545,987.0353306973145
1533044854.5070002,434.65804291968226,627.7516453242182,696.4049782072152,466.4755202298545,963.7439039107255
1533044854.5110002,410.5099813703515,627.7516453242182,603.0814472509584,427.895864242134,1024.888371465688
1533044854.515,472.6039875017347,597.8633743176368,509.7432127290868,385.8037428330775,896.7735981656716
1533044854.519,589.8965907322755,591.8881689709709,595.8914036653889,413.86755142440575,899.6894987541617
1533044854.5229998,565.7485291829448,615.8012346308861,768.2024891036076,487.51439797851094,1115.150103997331
1533044854.5270002,538.1527631175013,603.8385796643029,653.323530956257,529.6065193875675,943.3624147257381
1533044854.5310001,448.45592595240396,573.9503086577215,646.1481909363021,473.4860851607827,812.3377038241202
1533044854.535,389.8166893054043,591.8881689709709,696.4049782072152,420.87811635533393,716.2560960892745
1533044854.539,538.1527631175013,561.9876536911382,560.0,498.03742833077507,663.8474043260051
1533044854.542,531.2502891170051,561.9876536911382,674.8642545817361,505.0551762175751,963.7439039107255
1533044854.546,424.30786440307327,621.7764399775522,789.7432127290868,476.99855058211864,934.6266389340451
1533044854.55,389.8166893054043,639.7143002908016,753.8371054980832,448.93474199079037,832.7191930091077
1533044854.554,458.80610446901295,633.7390949441356,610.2567872709132,448.93474199079037,823.9834172174147
1533044854.5579998,600.2467692488846,609.8137850109688,646.1481909363021,487.51439797851094,911.3352121474561
1533044854.562,576.0987076995539,597.8633743176368,789.7432127290868,522.5887715007674,1010.3267574839035
1533044854.566,524.3548800847797,639.7143002908016,746.6617654781285,554.1578625575597,809.4277662225188
1533044854.57,507.1022275676744,669.6025712973828,746.6617654781285,522.5887715007674,823.9834172174147
1533044854.574,500.2068185354489,657.6521606040509,638.9728509163472,469.98080269531863,707.5203202975814
1533044854.5779998,631.2902398304408,615.8012346308861,646.1481909363021,512.0657411485033,637.6400769509261
1533044854.582,645.0881228631625,532.099382684557,847.1753400199549,550.6453971362238,922.9809255407506
1533044854.585,548.5029416341104,508.1863170246416,789.7432127290868,536.6170843184956,882.2179471707757
1533044854.589,496.7520490510654,550.0372429978063,674.8642545817361,494.53214586531095,844.3649064024022
1533044854.593,445.00822143629125,544.0497933778889,610.2567872709132,427.895864242134,649.291753331109
1533044854.5970001,565.7485291829448,508.1863170246416,588.716063645434,420.87811635533393,512.4412042393998
1533044854.601,596.7990647327717,526.1119330646395,775.3778291235625,505.0551762175751,914.2451497490576
1533044854.605,489.8566400188399,502.19886740472435,818.4592763745209,564.6808929098239,1071.471225038866
1533044854.609,469.15628298562194,496.22366205805827,653.323530956257,564.6808929098239,826.8993178059047
1533044854.613,420.8601598869605,526.1119330646395,524.0938927689965,494.53214586531095,486.2398398512093
1533044854.617,500.2068185354489,526.1119330646395,509.7432127290868,480.50383304758276,462.9484130646203
1533044854.621,614.0446522816063,538.0745880312229,588.716063645434,557.6631450230238,692.9646693026855
1533044854.625,545.0481721497268,633.7390949441356,696.4049782072152,561.168427488488,826.8993178059047
1533044854.6279998,531.2502891170051,657.6521606040509,789.7432127290868,564.6808929098239,829.8092554075063
1533044854.6320002,524.3548800847797,657.6521606040509,818.4592763745209,589.2322360798163,611.4387125627356
1533044854.6360002,596.7990647327717,723.4161522371307,667.6889145617812,533.1118018530316,419.2695341061554
1533044854.64,614.0446522816063,759.2796285903781,689.2296381872604,455.9524898775904,812.3377038241202
1533044854.644,555.3983506663359,789.1801438702108,840.0,505.0551762175751,1185.0243843570977
1533044854.6479998,555.3983506663359,819.068414876792,811.283936354566,550.6453971362238,925.8908631423521
1533044854.6520002,469.15628298562194,801.1305545635427,840.0,519.0834890353033,806.5178286209173
1533044854.6560001,534.7050586013886,759.2796285903781,717.9457018326945,526.1012369221033,931.7167013324436
1533044854.66,645.0881228631625,711.4534972705475,631.7975108963924,582.2144881930162,917.1550873506591
1533044854.664,596.7990647327717,735.3665629304627,775.3778291235625,606.7658313630086,1123.8799168021353
1533044854.667,565.7485291829448,765.2670782102954,653.323530956257,571.691457840752,1048.179798252277
1533044854.671,476.05875698611817,741.35401255038,509.7432127290868,508.5604586830392,687.138831112594
1533044854.675,493.3043445349527,699.5030865772154,509.7432127290868,459.4577723430545,687.138831112594
1533044854.679,686.4888369295984,723.4161522371307,617.432127290868,522.5887715007674,847.2808069908923
1533044854.6829998,676.1386584129895,729.3913575837968,753.8371054980832,592.7375185452803,762.8389496624524
1533044854.687,569.1962336990575,729.3913575837968,782.567872709132,582.2144881930162,821.0734796158133
1533044854.691,472.6039875017347,789.1801438702108,725.1210418526492,515.5782065698393,794.8721152276228
1533044854.695,472.6039875017347,765.2670782102954,624.6074673108229,480.50383304758276,544.4684068176816
1533044854.699,603.6944737649973,723.4161522371307,674.8642545817361,515.5782065698393,701.7004450943784
1533044854.7029998,555.3983506663359,741.35401255038,811.283936354566,571.691457840752,957.9180657206341
1533044854.707,469.15628298562194,747.3292178970461,796.9185527490416,589.2322360798163,998.681044090609
1533044854.71,427.76263388745673,771.2422835569614,732.3110854382188,536.6170843184956,806.5178286209173
1533044854.714,407.06227685423875,801.1305545635427,638.9728509163472,529.6065193875675,591.0572233777481
1533044854.718,558.8460551824486,705.4782919238814,588.716063645434,508.5604586830392,655.111628534312
1533044854.7220001,579.5464122156666,669.6025712973828,710.7703618127396,473.4860851607827,759.9290120608508
1533044854.726,455.3583999529002,681.5652262639661,861.5407236254791,519.0834890353033,870.5722337774812
1533044854.73,365.66862775607353,687.5404316106321,825.6346163944756,519.0834890353033,765.7548502509424
1533044854.734,369.1163322721863,675.5900209173002,753.8371054980832,466.4755202298545,503.7054284477067
1533044854.738,507.1022275676744,669.6025712973828,811.283936354566,498.03742833077507,655.111628534312
1533044854.742,572.651003183441,687.5404316106321,947.6889145617812,582.2144881930162,989.9452682989161
1533044854.746,517.4524060842834,693.515636957298,911.7975108963924,585.7197706584803,1001.596944679099
1533044854.7489998,441.5605169201785,681.5652262639661,796.9185527490416,533.1118018530316,972.4796797024186
1533044854.7529998,407.06227685423875,699.5030865772154,739.4864254581736,491.0268633998469,870.5722337774812
1533044854.7570002,520.9001106003961,717.4287026172134,768.2024891036076,498.03742833077507,789.0462770375314
1533044854.7610002,582.9941167317793,663.6273659507168,775.3778291235625,582.2144881930162,876.3921089806842
1533044854.765,514.0047015681706,621.7764399775522,768.2024891036076,592.7375185452803,934.6266389340451
1533044854.769,465.7085784695092,657.6521606040509,811.283936354566,533.1118018530316,815.2536044126103
1533044854.7729998,393.26439382151705,753.3044232437121,804.0938927689965,487.51439797851094,614.3486501643371
1533044854.7770002,510.5569970520579,777.2174889036274,674.8642545817361,487.51439797851094,436.74108568954136
1533044854.7810001,593.3442952483883,729.3913575837968,811.283936354566,501.549893752111,797.7820528292243
1533044854.785,489.8566400188399,729.3913575837968,990.7703618127396,536.6170843184956,1065.6513498356628
1533044854.789,448.45592595240396,699.5030865772154,868.716063645434,540.1295497398315,751.1932362691579
1533044854.792,376.0188062726825,663.6273659507168,883.0814472509584,462.96305480851856,823.9834172174147
1533044854.796,507.1022275676744,729.3913575837968,818.4592763745209,512.0657411485033,789.0462770375314
1533044854.8,596.7990647327717,717.4287026172134,854.3506800399097,550.6453971362238,800.6919904308259
1533044854.804,489.8566400188399,657.6521606040509,954.8642545817361,498.03742833077507,867.6622961758798
1533044854.8079998,486.40893550272716,687.5404316106321,847.1753400199549,526.1012369221033,809.4277662225188
1533044854.812,458.80610446901295,717.4287026172134,739.4864254581736,469.98080269531863,806.5178286209173
1533044854.816,486.40893550272716,699.5030865772154,667.6889145617812,462.96305480851856,623.08442595603
1533044854.82,582.9941167317793,681.5652262639661,717.9457018326945,522.5887715007674,579.4115099844537
1533044854.824,548.5029416341104,729.3913575837968,775.3778291235625,487.51439797851094,844.3649064024022
1533044854.8279998,476.05875698611817,699.5030865772154,710.7703618127396,476.99855058211864,1086.0328390206505
1533044854.832,369.1163322721863,675.5900209173002,617.432127290868,434.9064291730622,797.7820528292243
1533044854.835,407.06227685423875,699.5030865772154,488.2024891036076,427.895864242134,634.7301393493245
1533044854.839,551.9506461502231,645.6895056374675,588.716063645434,501.549893752111,867.6622961758798
1533044854.843,531.2502891170051,621.7764399775522,768.2024891036076,533.1118018530316,946.2723523273396
1533044854.8470001,458.80610446901295,615.8012346308861,732.3110854382188,557.6631450230238,794.8721152276228
1533044854.851,396.7120983376298,591.8881689709709,660.5135745418264,512.0657411485033,588.1472857761466
1533044854.855,465.7085784695092,567.9628590378042,617.432127290868,459.4577723430545,690.0487687141955
1533044854.859,662.3407753802677,609.8137850109688,581.5407236254791,547.1401146707598,882.2179471707757
1533044854.863,665.7884798963804,609.8137850109688,725.1210418526492,571.691457840752,1062.735449247173
1533044854.867,531.2502891170051,657.6521606040509,775.3778291235625,540.1295497398315,1115.150103997331
1533044854.871,393.26439382151705,735.3665629304627,660.5135745418264,424.38339882079805,815.2536044126103
1533044854.8739998,420.8601598869605,663.6273659507168,581.5407236254791,357.74711719762104,480.41400166111777
1533044854.8779998,548.5029416341104,615.8012346308861,531.283936354566,396.3267731853416,515.3571048278898
1533044854.8820002,551.9506461502231,687.5404316106321,703.5803182271701,445.42945952532625,655.111628534312
1533044854.8860002,517.4524060842834,699.5030865772154,746.6617654781285,522.5887715007674,922.9809255407506
1533044854.89,455.3583999529002,681.5652262639661,624.6074673108229,480.50383304758276,911.3352121474561
1533044854.894,407.06227685423875,651.6647109841334,581.5407236254791,420.87811635533393,663.8474043260051
1533044854.8979998,531.2502891170051,603.8385796643029,689.2296381872604,445.42945952532625,567.7657965911592
1533044854.9020002,600.2467692488846,561.9876536911382,696.4049782072152,505.0551762175751,736.6375852742619
1533044854.9060001,476.05875698611817,561.9876536911382,653.323530956257,512.0657411485033,1004.5068822807006
1533044854.91,420.8601598869605,645.6895056374675,682.0542981673055,462.96305480851856,864.7463955873897
1533044854.914,434.65804291968226,705.4782919238814,581.5407236254791,424.38339882079805,579.4115099844537
1533044854.917,541.6004676336141,699.5030865772154,552.8246599800451,441.9241770598622,655.111628534312
1533044854.921,624.3948307982153,669.6025712973828,761.0271490836528,522.5887715007674,864.7463955873897
1533044854.925,538.1527631175013,669.6025712973828,861.5407236254791,571.691457840752,1100.5884900155463
1533044854.929,496.7520490510654,645.6895056374675,739.4864254581736,536.6170843184956,1100.5884900155463
1533044854.9329998,458.80610446901295,639.7143002908016,689.2296381872604,484.0091155130468,791.9562146391328
1533044854.937,586.4488862161628,651.6647109841334,667.6889145617812,522.5887715007674,500.7954908461052
1533044854.941,700.2867199623201,675.5900209173002,739.4864254581736,554.1578625575597,631.8202017477231
1533044854.945,565.7485291829448,645.6895056374675,832.8246599800451,540.1295497398315,1010.3267574839035
1533044854.949,510.5569970520579,585.9007193510536,703.5803182271701,522.5887715007674,963.7439039107255
1533044854.9529998,455.3583999529002,609.8137850109688,610.2567872709132,459.4577723430545,582.3214475860551
1533044854.957,517.4524060842834,579.9255140043875,531.283936354566,410.3550860030698,567.7657965911592
1533044854.96,669.2361844124932,550.0372429978063,545.6346163944756,455.9524898775904,678.403055320901
1533044854.964,576.0987076995539,544.0497933778889,811.283936354566,494.53214586531095,949.182289928941
1533044854.968,482.9541660183437,573.9503086577215,868.716063645434,508.5604586830392,1045.2698606506754
1533044854.9720001,431.2103384035695,609.8137850109688,674.8642545817361,445.42945952532625,821.0734796158133
1533044854.976,510.5569970520579,544.0497933778889,574.3506800399097,427.895864242134,690.0487687141955
1533044854.98,648.542892347546,508.1863170246416,638.9728509163472,480.50383304758276,719.1660336908759
1533044854.984,565.7485291829448,556.0124483444722,768.2024891036076,508.5604586830392,1001.596944679099
1533044854.988,479.50646150223093,585.9007193510536,840.0,512.0657411485033,1103.4984276171479
1533044854.992,403.61457233812604,585.9007193510536,768.2024891036076,452.4472074121263,754.1091368576479
1533044854.996,479.50646150223093,526.1119330646395,588.716063645434,441.9241770598622,384.332393926272
1533044854.9989998,669.2361844124932,484.26100709147494,682.0542981673055,462.96305480851856,596.877098580951
1533044855.0029998,603.6944737649973,526.1119330646395,940.5135745418264,462.96305480851856,917.1550873506591
1533044855.0070002,524.3548800847797,585.9007193510536,918.9728509163472,476.99855058211864,925.8908631423521
1533044855.0110002,496.7520490510654,597.8633743176368,861.5407236254791,417.37283388986987,789.0462770375314
1533044855.015,489.8566400188399,556.0124483444722,746.6617654781285,343.7188043798928,515.3571048278898
1533044855.019,541.6004676336141,538.0745880312229,753.8371054980832,350.72936931082097,774.4906260426353
1533044855.0229998,507.1022275676744,556.0124483444722,897.432127290868,424.38339882079805,1074.387125627356
1533044855.0270002,427.76263388745673,556.0124483444722,911.7975108963924,462.96305480851856,876.3921089806842
1533044855.0310001,369.1163322721863,573.9503086577215,796.9185527490416,392.8214907198775,853.1006821940953
1533044855.035,420.8601598869605,579.9255140043875,682.0542981673055,385.8037428330775,748.2832986675564
1533044855.039,562.3008246668321,550.0372429978063,768.2024891036076,441.9241770598622,681.318955909391
1533044855.042,586.4488862161628,573.9503086577215,875.8914036653889,498.03742833077507,768.6647878525439
1533044855.046,545.0481721497268,639.7143002908016,890.2567872709132,557.6631450230238,806.5178286209173
1533044855.05,520.9001106003961,645.6895056374675,918.9728509163472,508.5604586830392,736.6375852742619
1533044855.054,538.1527631175013,639.7143002908016,883.0814472509584,476.99855058211864,524.0869176326942
1533044855.0579998,683.0411324134857,627.7516453242182,782.567872709132,519.0834890353033,270.7792346080401
1533044855.062,651.9905968636588,633.7390949441356,875.8914036653889,526.1012369221033,660.9374667244035
1533044855.066,527.8025846008924,615.8012346308861,1048.2024891036076,550.6453971362238,1185.0243843570977
1533044855.07,496.7520490510654,609.8137850109688,1012.3110854382188,543.6348322052957,992.861168887406
1533044855.074,455.3583999529002,633.7390949441356,947.6889145617812,480.50383304758276,733.7276476726604
1533044855.0779998,586.4488862161628,615.8012346308861,926.1481909363021,480.50383304758276,789.0462770375314
1533044855.081,638.192713830937,645.6895056374675,997.9457018326945,536.6170843184956,1056.9155740439699
1533044855.085,538.1527631175013,633.7390949441356,1012.3110854382188,592.7375185452803,952.0981905174311
1533044855.089,503.6545230515616,627.7516453242182,890.2567872709132,613.7835792498086,623.08442595603
1533044855.093,434.65804291968226,645.6895056374675,789.7432127290868,529.6065193875675,314.4521505796165
1533044855.0970001,510.5569970520579,621.7764399775522,761.0271490836528,469.98080269531863,492.05971505441227
1533044855.101,624.3948307982153,597.8633743176368,911.7975108963924,508.5604586830392,917.1550873506591
1533044855.105,527.8025846008924,621.7764399775522,1026.6617654781285,529.6065193875675,1027.7983090672894
1533044855.109,438.1128124040657,651.6647109841334,911.7975108963924,522.5887715007674,902.5994363557631
1533044855.113,400.1668678220133,645.6895056374675,796.9185527490416,466.4755202298545,678.403055320901
1533044855.117,479.50646150223093,609.8137850109688,746.6617654781285,438.41889459439807,742.4634234643534
1533044855.121,586.4488862161628,585.9007193510536,689.2296381872604,519.0834890353033,925.8908631423521
1533044855.1239998,631.2902398304408,645.6895056374675,617.432127290868,634.822456998465,812.3377038241202
1533044855.1279998,607.1421782811101,639.7143002908016,796.9185527490416,666.3915480552573,809.4277662225188
1533044855.1320002,413.964750854735,526.1119330646395,962.0542981673055,491.0268633998469,704.61038269598
1533044855.1360002,413.964750854735,442.4223253915616,847.1753400199549,399.83205565080567,465.8583506662218
1533044855.14,524.3548800847797,436.43487577164433,911.7975108963924,476.99855058211864,716.2560960892745
1533044855.144,431.2103384035695,478.28580174480896,1041.0271490836528,519.0834890353033,969.5637791139285
1533044855.1479998,369.1163322721863,466.33539105147696,976.4049782072152,529.6065193875675,783.2204388474398
1533044855.1520002,320.82020917352486,508.1863170246416,926.1481909363021,484.0091155130468,556.1200831978647
1533044855.1560001,365.66862775607353,550.0372429978063,796.9185527490416,406.84980353760574,433.8311480879399
1533044855.16,496.7520490510654,538.0745880312229,832.8246599800451,431.40114670759806,666.7573419276065
1533044855.164,458.80610446901295,561.9876536911382,947.6889145617812,498.03742833077507,963.7439039107255
1533044855.167,413.964750854735,573.9503086577215,897.432127290868,533.1118018530316,928.8067637308421
1533044855.171,382.91421530490805,538.0745880312229,818.4592763745209,476.99855058211864,890.9537229624686
1533044855.175,351.87074472335183,508.1863170246416,725.1210418526492,424.38339882079805,765.7548502509424
1533044855.179,431.2103384035695,526.1119330646395,775.3778291235625,455.9524898775904,829.8092554075063
1533044855.1829998,458.80610446901295,526.1119330646395,875.8914036653889,540.1295497398315,963.7439039107255
1533044855.187,403.61457233812604,544.0497933778889,890.2567872709132,557.6631450230238,899.6894987541617
1533044855.191,348.4159752389684,663.6273659507168,883.0814472509584,480.50383304758276,850.1907445924937
1533044855.195,369.1163322721863,663.6273659507168,739.4864254581736,420.87811635533393,698.7845445058884
1533044855.199,469.15628298562194,591.8881689709709,682.0542981673055,434.9064291730622,634.7301393493245
1533044855.2029998,393.26439382151705,609.8137850109688,883.0814472509584,445.42945952532625,940.4524771241366
1533044855.206,331.17038769013385,651.6647109841334,947.6889145617812,487.51439797851094,1019.0625332755965
1533044855.21,348.4159752389684,663.6273659507168,832.8246599800451,452.4472074121263,858.9265203841867
1533044855.214,348.4159752389684,639.7143002908016,717.9457018326945,410.3550860030698,625.9943635576316
1533044855.218,482.9541660183437,621.7764399775522,710.7703618127396,417.37283388986987,637.6400769509261
1533044855.2220001,524.3548800847797,663.6273659507168,847.1753400199549,448.93474199079037,806.5178286209173
1533044855.226,438.1128124040657,705.4782919238814,875.8914036653889,536.6170843184956,867.6622961758798
1533044855.23,407.06227685423875,681.5652262639661,753.8371054980832,543.6348322052957,719.1660336908759
1533044855.234,403.61457233812604,699.5030865772154,746.6617654781285,519.0834890353033,829.8092554075063
1533044855.238,531.2502891170051,657.6521606040509,804.0938927689965,536.6170843184956,1129.7057549922267
1533044855.242,579.5464122156666,687.5404316106321,911.7975108963924,547.1401146707598,1173.3786709638032
1533044855.246,489.8566400188399,741.35401255038,1012.3110854382188,578.7092057275521,1045.2698606506754
1533044855.2489998,455.3583999529002,717.4287026172134,954.8642545817361,592.7375185452803,861.8364579857882
1533044855.2529998,400.1668678220133,693.515636957298,832.8246599800451,550.6453971362238,751.1932362691579
1533044855.2570002,451.9106954367875,669.6025712973828,775.3778291235625,508.5604586830392,966.6538415123271
1533044855.2610002,496.7520490510654,639.7143002908016,861.5407236254791,526.1012369221033,1120.9699792005338
1533044855.265,469.15628298562194,633.7390949441356,875.8914036653889,557.6631450230238,984.1253930957131
1533044855.269,389.8166893054043,645.6895056374675,804.0938927689965,515.5782065698393,861.8364579857882
1533044855.2729998,331.17038769013385,639.7143002908016,725.1210418526492,466.4755202298545,591.0572233777481
1533044855.2770002,451.9106954367875,621.7764399775522,646.1481909363021,459.4577723430545,489.1497774528108
1533044855.2810001,569.1962336990575,627.7516453242182,782.567872709132,484.0091155130468,675.4931177192994
1533044855.285,486.40893550272716,621.7764399775522,918.9728509163472,512.0657411485033,800.6919904308259
1533044855.289,413.964750854735,603.8385796643029,782.567872709132,512.0657411485033,579.4115099844537
1533044855.292,362.21385827169007,651.6647109841334,703.5803182271701,476.99855058211864,381.42245632467046
1533044855.296,448.45592595240396,627.7516453242182,703.5803182271701,462.96305480851856,489.1497774528108
1533044855.3,620.9471262821025,621.7764399775522,796.9185527490416,540.1295497398315,690.0487687141955
1533044855.304,562.3008246668321,651.6647109841334,918.9728509163472,582.2144881930162,856.0165827825853
1533044855.3079998,458.80610446901295,663.6273659507168,897.432127290868,533.1118018530316,867.6622961758798
1533044855.312,407.06227685423875,711.4534972705475,868.716063645434,476.99855058211864,716.2560960892745
1533044855.316,493.3043445349527,747.3292178970461,739.4864254581736,459.4577723430545,430.91524749944983
1533044855.32,593.3442952483883,741.35401255038,732.3110854382188,448.93474199079037,602.7029367710426
1533044855.324,531.2502891170051,699.5030865772154,832.8246599800451,484.0091155130468,876.3921089806842
1533044855.3279998,472.6039875017347,681.5652262639661,840.0,519.0834890353033,774.4906260426353
1533044855.331,403.61457233812604,759.2796285903781,847.1753400199549,473.4860851607827,666.7573419276065
1533044855.335,434.65804291968226,669.6025712973828,696.4049782072152,473.4860851607827,553.2041826093747
1533044855.339,593.3442952483883,573.9503086577215,646.1481909363021,522.5887715007674,582.3214475860551
1533044855.343,576.0987076995539,681.5652262639661,789.7432127290868,536.6170843184956,757.0190744592494
1533044855.3470001,500.2068185354489,741.35401255038,854.3506800399097,575.1967403062162,934.6266389340451
1533044855.351,445.00822143629125,747.3292178970461,847.1753400199549,543.6348322052957,844.3649064024022
1533044855.355,462.26087395339647,729.3913575837968,732.3110854382188,473.4860851607827,547.3843074061717
1533044855.359,607.1421782811101,681.5652262639661,746.6617654781285,508.5604586830392,643.4659151410175
1533044855.363,541.6004676336141,687.5404316106321,847.1753400199549,515.5782065698393,984.1253930957131
1533044855.367,451.9106954367875,717.4287026172134,825.6346163944756,543.6348322052957,998.681044090609
1533044855.371,431.2103384035695,663.6273659507168,732.3110854382188,522.5887715007674,847.2808069908923
1533044855.3739998,372.56403678829906,556.0124483444722,638.9728509163472,431.40114670759806,602.7029367710426
1533044855.3779998,514.0047015681706,550.0372429978063,689.2296381872604,403.3445210721416,588.1472857761466
1533044855.3820002,538.1527631175013,585.9007193510536,890.2567872709132,459.4577723430545,893.8636605640702
1533044855.3860002,445.00822143629125,591.8881689709709,890.2567872709132,536.6170843184956,847.2808069908923
1533044855.39,427.76263388745673,633.7390949441356,811.283936354566,526.1012369221033,701.7004450943784
1533044855.394,413.964750854735,645.6895056374675,768.2024891036076,501.549893752111,748.2832986675564
1533044855.3979998,548.5029416341104,609.8137850109688,739.4864254581736,550.6453971362238,1045.2698606506754
1533044855.4020002,610.5969477654935,591.8881689709709,818.4592763745209,582.2144881930162,1065.6513498356628
1533044855.4060001,510.5569970520579,603.8385796643029,868.716063645434,585.7197706584803,960.8339663091241
1533044855.41,472.6039875017347,579.9255140043875,840.0,564.6808929098239,873.4821713790827
1533044855.414,479.50646150223093,585.9007193510536,746.6617654781285,512.0657411485033,538.6485316144787
1533044855.417,576.0987076995539,561.9876536911382,710.7703618127396,501.549893752111,762.8389496624524
1533044855.421,596.7990647327717,508.1863170246416,825.6346163944756,547.1401146707598,1086.0328390206505
1533044855.425,510.5569970520579,538.0745880312229,904.6074673108229,613.7835792498086,934.6266389340451
1533044855.429,500.2068185354489,573.9503086577215,854.3506800399097,627.8118920675369,826.8993178059047
1533044855.4329998,448.45592595240396,591.8881689709709,746.6617654781285,515.5782065698393,768.6647878525439
1533044855.437,482.9541660183437,579.9255140043875,689.2296381872604,487.51439797851094,832.7191930091077
1533044855.441,545.0481721497268,544.0497933778889,775.3778291235625,519.0834890353033,800.6919904308259
1533044855.445,465.7085784695092,550.0372429978063,840.0,512.0657411485033,893.8636605640702
1533044855.449,420.8601598869605,591.8881689709709,825.6346163944756,498.03742833077507,922.9809255407506
1533044855.4529998,365.66862775607353,597.8633743176368,761.0271490836528,441.9241770598622,652.2016909327106
1533044855.456,420.8601598869605,591.8881689709709,646.1481909363021,427.895864242134,515.3571048278898
1533044855.46,596.7990647327717,609.8137850109688,811.283936354566,505.0551762175751,675.4931177192994
1533044855.464,589.8965907322755,633.7390949441356,904.6074673108229,564.6808929098239,893.8636605640702
1533044855.468,503.6545230515616,663.6273659507168,789.7432127290868,557.6631450230238,783.2204388474398
1533044855.4720001,389.8166893054043,633.7390949441356,861.5407236254791,487.51439797851094,646.375852742619
1533044855.476,476.05875698611817,591.8881689709709,725.1210418526492,473.4860851607827,428.00530989784835
1533044855.48,617.492356797719,561.9876536911382,610.2567872709132,473.4860851607827,308.63227537641353
1533044855.484,510.5569970520579,591.8881689709709,904.6074673108229,519.0834890353033,739.5475228758634
1533044855.488,427.76263388745673,639.7143002908016,954.8642545817361,568.186175375288,1033.624147257381
1533044855.492,382.91421530490805,645.6895056374675,847.1753400199549,512.0657411485033,934.6266389340451
1533044855.496,431.2103384035695,639.7143002908016,696.4049782072152,452.4472074121263,640.5559775394161
1533044855.4989998,638.192713830937,645.6895056374675,545.6346163944756,519.0834890353033,541.5584692160802
1533044855.5029998,734.7849600282599,633.7390949441356,667.6889145617812,683.9251433384496,885.1278847723772
1533044855.5070002,545.0481721497268,538.0745880312229,868.716063645434,662.8862655897933,963.7439039107255
1533044855.5110002,358.7661537555773,430.4596704249783,897.432127290868,480.50383304758276,704.61038269598
1533044855.515,369.1163322721863,400.57139941839705,789.7432127290868,406.84980353760574,707.5203202975814
1533044855.519,500.2068185354489,376.6460894852304,840.0,473.4860851607827,509.53126663779824
1533044855.5229998,431.2103384035695,346.7578184786491,1177.432127290868,459.4577723430545,727.9018094825689
1533044855.5270002,286.3219691075852,304.90689250548445,1213.323530956257,406.84980353760574,826.8993178059047
1533044855.5310001,234.57814149281097,257.08076118565384,1263.58031822717,396.3267731853416,710.430257899183
1533044855.535,303.5746216246904,275.01862149890314,1256.4049782072152,420.87811635533393,838.5450311991992
1533044855.5379999,424.30786440307327,221.2050405591552,1198.9728509163472,438.41889459439807,771.5747254541453
1533044855.542,382.91421530490805,143.4783939594919,1443.0667436853437,501.549893752111,768.6647878525439
1533044855.546,313.9248001412994,137.50318861282588,1550.7703618127396,557.6631450230238,949.182289928941
1533044855.55,282.8742645914724,131.52798326615994,1493.323530956257,540.1295497398315,695.8746069042869
1533044855.554,289.77673859196864,137.50318861282588,1414.3506800399098,543.6348322052957,716.2560960892745
1533044855.5579998,448.45592595240396,149.46584357940927,1364.0938927689965,578.7092057275521,879.3080095691741
1533044855.562,503.6545230515616,125.55277791949396,1450.2567872709133,638.3349224198009,899.6894987541617
1533044855.566,389.8166893054043,161.41625427274124,1457.432127290868,627.8118920675369,885.1278847723772
1533044855.57,341.52056620674284,155.44104892607527,1299.4864254581737,613.7835792498086,739.5475228758634
1533044855.574,331.17038769013385,173.37890923932457,1170.2567872709133,599.7480834762085,628.9102641461216
1533044855.5779998,465.7085784695092,131.52798326615994,1012.3110854382188,561.168427488488,442.56692387963284
1533044855.581,551.9506461502231,101.62746798632723,997.9457018326945,578.7092057275521,390.1522691294749
1533044855.585,455.3583999529002,257.08076118565384,1155.891403665389,578.7092057275521,637.6400769509261
1533044855.589,382.91421530490805,358.7204734452324,1091.283936354566,543.6348322052957,739.5475228758634
1533044855.593,300.11985214030693,340.7826131319831,976.4049782072152,473.4860851607827,777.4005636442369
1533044855.5970001,382.91421530490805,286.96903219223515,962.0542981673055,420.87811635533393,739.5475228758634
1533044855.601,507.1022275676744,286.96903219223515,1084.0938927689965,476.99855058211864,922.9809255407506
1533044855.605,441.5605169201785,334.79516351206576,1048.2024891036076,561.168427488488,987.0353306973145
1533044855.609,389.8166893054043,382.63353910514775,1012.3110854382188,536.6170843184956,791.9562146391328
1533044855.613,334.6180922062466,430.4596704249783,1055.3778291235624,459.4577723430545,727.9018094825689
1533044855.617,438.1128124040657,460.3479414315596,918.9728509163472,459.4577723430545,503.7054284477067
1533044855.621,576.0987076995539,430.4596704249783,954.8642545817361,519.0834890353033,821.0734796158133
1533044855.6239998,489.8566400188399,472.31059639814293,1155.891403665389,557.6631450230238,1132.6156925938283
1533044855.6279998,448.45592595240396,472.31059639814293,1148.716063645434,578.7092057275521,710.430257899183
1533044855.6320002,379.4665107887953,448.39753073822766,1084.0938927689965,526.1012369221033,591.0572233777481
1533044855.6360002,431.2103384035695,436.43487577164433,997.9457018326945,491.0268633998469,602.7029367710426
1533044855.64,610.5969477654935,436.43487577164433,1062.567872709132,557.6631450230238,719.1660336908759
1533044855.644,589.8965907322755,454.37273608489363,1076.9185527490417,547.1401146707598,888.0437853608672
1533044855.6479998,486.40893550272716,442.4223253915616,983.5803182271701,561.168427488488,841.4549688008008
1533044855.6520002,445.00822143629125,466.33539105147696,897.432127290868,575.1967403062162,631.8202017477231
1533044855.6560001,503.6545230515616,484.26100709147494,796.9185527490416,522.5887715007674,716.2560960892745
1533044855.66,634.7450093148242,484.26100709147494,868.716063645434,515.5782065698393,899.6894987541617
1533044855.6629999,631.2902398304408,502.19886740472435,1069.7432127290867,550.6453971362238,876.3921089806842
1533044855.667,562.3008246668321,538.0745880312229,1048.2024891036076,589.2322360798163,867.6622961758798
1533044855.671,520.9001106003961,544.0497933778889,911.7975108963924,564.6808929098239,806.5178286209173
1533044855.675,524.3548800847797,550.0372429978063,753.8371054980832,519.0834890353033,739.5475228758634
1533044855.679,627.842535314328,579.9255140043875,739.4864254581736,498.03742833077507,666.7573419276065
1533044855.6829998,603.6944737649973,591.8881689709709,832.8246599800451,533.1118018530316,780.3105012458383
1533044855.687,476.05875698611817,633.7390949441356,832.8246599800451,571.691457840752,1036.5340848589824
1533044855.691,379.4665107887953,633.7390949441356,811.283936354566,494.53214586531095,1016.1525956739949
1533044855.695,341.52056620674284,597.8633743176368,717.9457018326945,417.37283388986987,890.9537229624686
1533044855.699,472.6039875017347,639.7143002908016,689.2296381872604,438.41889459439807,786.1363394359298
1533044855.7029998,531.2502891170051,645.6895056374675,847.1753400199549,476.99855058211864,675.4931177192994
1533044855.706,438.1128124040657,669.6025712973828,911.7975108963924,515.5782065698393,783.2204388474398
1533044855.71,355.3184492394646,663.6273659507168,875.8914036653889,522.5887715007674,806.5178286209173
1533044855.714,341.52056620674284,645.6895056374675,789.7432127290868,494.53214586531095,541.5584692160802
1533044855.718,538.1527631175013,633.7390949441356,667.6889145617812,505.0551762175751,477.5040640595163
1533044855.7220001,614.0446522816063,645.6895056374675,818.4592763745209,585.7197706584803,707.5203202975814
1533044855.726,493.3043445349527,711.4534972705475,1005.1210418526492,645.3454873507292,844.3649064024022
1533044855.73,455.3583999529002,741.35401255038,962.0542981673055,624.2994266462009,614.3486501643371
1533044855.734,438.1128124040657,783.2049385235447,854.3506800399097,550.6453971362238,564.8498960026692
1533044855.738,558.8460551824486,753.3044232437121,847.1753400199549,540.1295497398315,899.6894987541617
1533044855.742,658.893070864155,717.4287026172134,1012.3110854382188,603.2605488975445,960.8339663091241
1533044855.746,600.2467692488846,723.4161522371307,976.4049782072152,606.7658313630086,844.3649064024022
1533044855.7489998,510.5569970520579,711.4534972705475,911.7975108963924,575.1967403062162,864.7463955873897
1533044855.7529998,424.30786440307327,699.5030865772154,969.2296381872604,547.1401146707598,800.6919904308259
1533044855.7570002,517.4524060842834,711.4534972705475,911.7975108963924,526.1012369221033,818.1635420142118
1533044855.7610002,586.4488862161628,693.515636957298,1005.1210418526492,543.6348322052957,684.2288935109925
1533044855.765,489.8566400188399,705.4782919238814,1055.3778291235624,554.1578625575597,695.8746069042869
1533044855.769,434.65804291968226,681.5652262639661,976.4049782072152,578.7092057275521,742.4634234643534
1533044855.7729998,413.964750854735,729.3913575837968,962.0542981673055,505.0551762175751,902.5994363557631
1533044855.7770002,496.7520490510654,771.2422835569614,768.2024891036076,431.40114670759806,981.2154554941116
1533044855.7810001,607.1421782811101,675.5900209173002,753.8371054980832,473.4860851607827,646.375852742619
1533044855.785,531.2502891170051,639.7143002908016,969.2296381872604,536.6170843184956,704.61038269598
1533044855.7879999,448.45592595240396,705.4782919238814,918.9728509163472,564.6808929098239,765.7548502509424
1533044855.792,427.76263388745673,723.4161522371307,804.0938927689965,571.691457840752,928.8067637308421
1533044855.796,500.2068185354489,621.7764399775522,725.1210418526492,550.6453971362238,1071.471225038866
1533044855.8,600.2467692488846,573.9503086577215,761.0271490836528,529.6065193875675,841.4549688008008
1533044855.804,545.0481721497268,591.8881689709709,926.1481909363021,578.7092057275521,957.9180657206341
1533044855.8079998,482.9541660183437,603.8385796643029,897.432127290868,596.2428010107444,806.5178286209173
1533044855.812,445.00822143629125,603.8385796643029,825.6346163944756,508.5604586830392,591.0572233777481
1533044855.816,479.50646150223093,591.8881689709709,739.4864254581736,484.0091155130468,620.1744883544286
1533044855.82,579.5464122156666,579.9255140043875,768.2024891036076,498.03742833077507,524.0869176326942
1533044855.824,534.7050586013886,550.0372429978063,904.6074673108229,494.53214586531095,599.7929991694411
1533044855.8279998,479.50646150223093,556.0124483444722,904.6074673108229,508.5604586830392,611.4387125627356
1533044855.831,469.15628298562194,633.7390949441356,904.6074673108229,452.4472074121263,675.4931177192994
1533044855.835,503.6545230515616,663.6273659507168,782.567872709132,431.40114670759806,675.4931177192994
1533044855.839,614.0446522816063,627.7516453242182,746.6617654781285,498.03742833077507,529.9127558227857
1533044855.843,579.5464122156666,651.6647109841334,861.5407236254791,522.5887715007674,690.0487687141955
1533044855.8470001,462.26087395339647,693.515636957298,840.0,494.53214586531095,911.3352121474561
1533044855.851,417.41245537084774,687.5404316106321,753.8371054980832,445.42945952532625,841.4549688008008
1533044855.855,434.65804291968226,609.8137850109688,674.8642545817361,417.37283388986987,588.1472857761466
1533044855.859,503.6545230515616,561.9876536911382,753.8371054980832,424.38339882079805,623.08442595603
1533044855.863,486.40893550272716,556.0124483444722,918.9728509163472,466.4755202298545,780.3105012458383
1533044855.867,410.5099813703515,561.9876536911382,976.4049782072152,487.51439797851094,978.2995549056216
1533044855.87,327.7226831740211,538.0745880312229,926.1481909363021,445.42945952532625,920.0709879391492
1533044855.8739998,303.5746216246904,532.099382684557,789.7432127290868,410.3550860030698,733.7276476726604
1533044855.8779998,413.964750854735,520.1367277179736,789.7432127290868,441.9241770598622,515.3571048278898
1533044855.8820002,441.5605169201785,514.1615223713077,954.8642545817361,526.1012369221033,582.3214475860551
1533044855.8860002,413.964750854735,538.0745880312229,933.323530956257,578.7092057275521,719.1660336908759
1533044855.89,410.5099813703515,585.9007193510536,868.716063645434,526.1012369221033,529.9127558227857
1533044855.894,413.964750854735,633.7390949441356,811.283936354566,487.51439797851094,550.2942450077732
1533044855.8979998,565.7485291829448,603.8385796643029,732.3110854382188,505.0551762175751,465.8583506662218
1533044855.9020002,607.1421782811101,567.9628590378042,847.1753400199549,529.6065193875675,631.8202017477231
1533044855.9060001,510.5569970520579,639.7143002908016,1069.7432127290867,554.1578625575597,925.8908631423521
1533044855.91,507.1022275676744,699.5030865772154,969.2296381872604,522.5887715007674,719.1660336908759
1533044855.9129999,438.1128124040657,705.4782919238814,753.8371054980832,452.4472074121263,678.403055320901
1533044855.917,486.40893550272716,675.5900209173002,732.3110854382188,441.9241770598622,861.8364579857882
1533044855.921,610.5969477654935,669.6025712973828,875.8914036653889,505.0551762175751,888.0437853608672
1533044855.925,569.1962336990575,717.4287026172134,926.1481909363021,505.0551762175751,1138.44153078392
1533044855.929,596.7990647327717,741.35401255038,739.4864254581736,543.6348322052957,1077.2970632289573
1533044855.9329998,634.7450093148242,705.4782919238814,603.0814472509584,624.2994266462009,745.3733610659549
1533044855.937,586.4488862161628,609.8137850109688,646.1481909363021,508.5604586830392,678.403055320901
1533044855.941,514.0047015681706,502.19886740472435,890.2567872709132,427.895864242134,669.6732425160965
1533044855.945,420.8601598869605,478.28580174480896,1148.716063645434,498.03742833077507,736.6375852742619
1533044855.949,431.2103384035695,466.33539105147696,1191.7975108963924,582.2144881930162,695.8746069042869
1533044855.9529998,379.4665107887953,406.546604765063,1155.891403665389,634.822456998465,672.583180117698
1533044855.956,448.45592595240396,358.7204734452324,1134.3506800399098,669.8968305207214,634.7301393493245
1533044855.96,617.492356797719,352.7330238253151,1249.2296381872604,757.5791728484268,506.62132903619676
1533044855.964,565.7485291829448,388.6087444518137,1306.6617654781285,775.112768131619,582.3214475860551
1533044855.968,486.40893550272716,430.4596704249783,1206.148190936302,754.0738903829626,821.0734796158133
1533044855.9720001,407.06227685423875,478.28580174480896,1141.5407236254791,718.9995168607062,672.583180117698
1533044855.976,365.66862775607353,466.33539105147696,1048.2024891036076,662.8862655897933,579.4115099844537
1533044855.98,514.0047015681706,472.31059639814293,983.5803182271701,673.4021129861856,660.9374667244035
1533044855.984,538.1527631175013,454.37273608489363,1026.6617654781285,683.9251433384496,748.2832986675564
1533044855.988,410.5099813703515,412.521810111729,1062.567872709132,645.3454873507292,853.1006821940953
1533044855.992,389.8166893054043,490.2484567113923,1019.4864254581736,589.2322360798163,823.9834172174147
1533044855.995,417.41245537084774,538.0745880312229,775.3778291235625,533.1118018530316,890.9537229624686
1533044855.9989998,496.7520490510654,502.19886740472435,646.1481909363021,501.549893752111,777.4005636442369
1533044856.0029998,496.7520490510654,514.1615223713077,789.7432127290868,491.0268633998469,850.1907445924937
1533044856.0070002,424.30786440307327,532.099382684557,818.4592763745209,512.0657411485033,925.8908631423521
1533044856.0110002,372.56403678829906,561.9876536911382,775.3778291235625,484.0091155130468,678.403055320901
1533044856.015,376.0188062726825,579.9255140043875,667.6889145617812,420.87811635533393,707.5203202975814
1533044856.019,517.4524060842834,556.0124483444722,732.3110854382188,459.4577723430545,783.2204388474398
1533044856.0229998,545.0481721497268,556.0124483444722,897.432127290868,515.5782065698393,949.182289928941
1533044856.0270002,462.26087395339647,633.7390949441356,761.0271490836528,519.0834890353033,899.6894987541617
1533044856.0310001,410.5099813703515,693.515636957298,761.0271490836528,484.0091155130468,625.9943635576316
1533044856.035,403.61457233812604,705.4782919238814,789.7432127290868,431.40114670759806,695.8746069042869
1533044856.0379999,527.8025846008924,693.515636957298,674.8642545817361,431.40114670759806,946.2723523273396
1533044856.042,558.8460551824486,693.515636957298,875.8914036653889,473.4860851607827,1167.5587957606003
1533044856.046,462.26087395339647,741.35401255038,983.5803182271701,501.549893752111,1383.0134380168809
1533044856.05,400.1668678220133,741.35401255038,897.432127290868,494.53214586531095,1327.6948086520101
1533044856.054,389.8166893054043,687.5404316106321,768.2024891036076,480.50383304758276,727.9018094825689
1533044856.0579998,469.15628298562194,657.6521606040509,725.1210418526492,434.9064291730622,856.0165827825853
1533044856.062,555.3983506663359,645.6895056374675,796.9185527490416,494.53214586531095,908.4252745458547
1533044856.066,510.5569970520579,669.6025712973828,818.4592763745209,592.7375185452803,809.4277662225188
1533044856.07,434.65804291968226,681.5652262639661,840.0,568.186175375288,1027.7983090672894
1533044856.074,420.8601598869605,639.7143002908016,703.5803182271701,522.5887715007674,847.2808069908923
1533044856.0779998,469.15628298562194,597.8633743176368,631.7975108963924,487.51439797851094,832.7191930091077
1533044856.081,503.6545230515616,579.9255140043875,796.9185527490416,505.0551762175751,893.8636605640702
1533044856.085,434.65804291968226,621.7764399775522,868.716063645434,543.6348322052957,856.0165827825853
1533044856.089,389.8166893054043,633.7390949441356,832.8246599800451,505.0551762175751,812.3377038241202
1533044856.093,351.87074472335183,621.7764399775522,768.2024891036076,438.41889459439807,989.9452682989161
1533044856.0970001,438.1128124040657,615.8012346308861,617.432127290868,441.9241770598622,1045.2698606506754
1533044856.101,610.5969477654935,573.9503086577215,674.8642545817361,487.51439797851094,768.6647878525439
1533044856.105,589.8965907322755,609.8137850109688,775.3778291235625,529.6065193875675,960.8339663091241
1533044856.109,524.3548800847797,627.7516453242182,782.567872709132,543.6348322052957,1161.7329575705087
1533044856.113,431.2103384035695,627.7516453242182,746.6617654781285,480.50383304758276,1251.9946901021517
1533044856.117,451.9106954367875,591.8881689709709,638.9728509163472,452.4472074121263,1083.1169384321604
1533044856.12,596.7990647327717,484.26100709147494,725.1210418526492,505.0551762175751,663.8474043260051
1533044856.1239998,562.3008246668321,472.31059639814293,825.6346163944756,568.186175375288,698.7845445058884
1533044856.1279998,451.9106954367875,484.26100709147494,811.283936354566,585.7197706584803,888.0437853608672
1533044856.1320002,365.66862775607353,514.1615223713077,768.2024891036076,480.50383304758276,937.5365765356466
1533044856.1360002,438.1128124040657,514.1615223713077,646.1481909363021,466.4755202298545,794.8721152276228
1533044856.14,589.8965907322755,496.22366205805827,617.432127290868,529.6065193875675,789.0462770375314
1533044856.144,541.6004676336141,532.099382684557,861.5407236254791,543.6348322052957,963.7439039107255
1533044856.1479998,448.45592595240396,561.9876536911382,926.1481909363021,554.1578625575597,812.3377038241202
1533044856.1520002,427.76263388745673,591.8881689709709,832.8246599800451,512.0657411485033,879.3080095691741
1533044856.1560001,472.6039875017347,603.8385796643029,667.6889145617812,484.0091155130468,949.182289928941
1533044856.16,631.2902398304408,567.9628590378042,710.7703618127396,540.1295497398315,692.9646693026855
1533044856.1629999,627.842535314328,579.9255140043875,926.1481909363021,596.2428010107444,850.1907445924937
1533044856.167,562.3008246668321,657.6521606040509,861.5407236254791,617.2888617152727,1027.7983090672894
1533044856.171,527.8025846008924,669.6025712973828,782.567872709132,540.1295497398315,719.1660336908759
1533044856.175,545.0481721497268,669.6025712973828,768.2024891036076,491.0268633998469,684.2288935109925
1533044856.179,665.7884798963804,609.8137850109688,667.6889145617812,473.4860851607827,707.5203202975814
1533044856.1829998,638.192713830937,561.9876536911382,796.9185527490416,462.96305480851856,733.7276476726604
1533044856.187,558.8460551824486,615.8012346308861,868.716063645434,505.0551762175751,908.4252745458547
1533044856.191,531.2502891170051,627.7516453242182,753.8371054980832,476.99855058211864,690.0487687141955
1533044856.195,472.6039875017347,609.8137850109688,717.9457018326945,441.9241770598622,658.0215661359135
1533044856.199,527.8025846008924,603.8385796643029,746.6617654781285,455.9524898775904,637.6400769509261
1533044856.2020001,534.7050586013886,585.9007193510536,847.1753400199549,473.4860851607827,448.3867990828358
1533044856.206,465.7085784695092,591.8881689709709,904.6074673108229,519.0834890353033,818.1635420142118
1533044856.21,403.61457233812604,544.0497933778889,811.283936354566,501.549893752111,905.5093739573647
1533044856.214,344.9682707228556,502.19886740472435,674.8642545817361,455.9524898775904,777.4005636442369
1533044856.218,455.3583999529002,502.19886740472435,746.6617654781285,469.98080269531863,687.138831112594
1533044856.2220001,500.2068185354489,538.0745880312229,897.432127290868,505.0551762175751,663.8474043260051
1533044856.226,417.41245537084774,579.9255140043875,954.8642545817361,536.6170843184956,815.2536044126103
1533044856.23,389.8166893054043,657.6521606040509,904.6074673108229,519.0834890353033,637.6400769509261
1533044856.234,313.9248001412994,675.5900209173002,717.9457018326945,473.4860851607827,422.1854346946454
1533044856.238,376.0188062726825,633.7390949441356,696.4049782072152,505.0551762175751,631.8202017477231
1533044856.242,503.6545230515616,633.7390949441356,854.3506800399097,536.6170843184956,832.7191930091077
1533044856.245,455.3583999529002,651.6647109841334,840.0,554.1578625575597,809.4277662225188
1533044856.2489998,389.8166893054043,627.7516453242182,768.2024891036076,529.6065193875675,850.1907445924937
1533044856.2529998,379.4665107887953,621.7764399775522,811.283936354566,448.93474199079037,943.3624147257381
1533044856.2570002,486.40893550272716,585.9007193510536,696.4049782072152,431.40114670759806,777.4005636442369
1533044856.2610002,572.651003183441,544.0497933778889,710.7703618127396,512.0657411485033,611.4387125627356
1533044856.265,493.3043445349527,603.8385796643029,847.1753400199549,564.6808929098239,1077.2970632289573
1533044856.269,448.45592595240396,621.7764399775522,868.716063645434,550.6453971362238,1173.3786709638032
1533044856.2729998,403.61457233812604,615.8012346308861,818.4592763745209,501.549893752111,794.8721152276228
1533044856.2770002,438.1128124040657,591.8881689709709,732.3110854382188,498.03742833077507,623.08442595603
1533044856.2810001,600.2467692488846,567.9628590378042,911.7975108963924,582.2144881930162,905.5093739573647
1533044856.285,545.0481721497268,556.0124483444722,1055.3778291235624,592.7375185452803,908.4252745458547
1533044856.2879999,396.7120983376298,561.9876536911382,1005.1210418526492,554.1578625575597,984.1253930957131
1533044856.292,344.9682707228556,573.9503086577215,962.0542981673055,501.549893752111,1199.5859983388823
1533044856.296,438.1128124040657,579.9255140043875,775.3778291235625,476.99855058211864,774.4906260426353
1533044856.3,562.3008246668321,561.9876536911382,804.0938927689965,469.98080269531863,879.3080095691741
1533044856.304,507.1022275676744,567.9628590378042,976.4049782072152,505.0551762175751,1094.7686148123435
1533044856.3079998,472.6039875017347,633.7390949441356,875.8914036653889,529.6065193875675,853.1006821940953
1533044856.312,379.4665107887953,663.6273659507168,875.8914036653889,448.93474199079037,710.430257899183
1533044856.316,407.06227685423875,520.1367277179736,875.8914036653889,484.0091155130468,623.08442595603
1533044856.32,624.3948307982153,460.3479414315596,883.0814472509584,599.7480834762085,762.8389496624524
1533044856.324,493.3043445349527,687.5404316106321,911.7975108963924,476.99855058211864,931.7167013324436
1533044856.3270001,320.82020917352486,747.3292178970461,804.0938927689965,364.76486508442105,823.9834172174147
1533044856.331,389.8166893054043,711.4534972705475,732.3110854382188,427.895864242134,823.9834172174147
1533044856.335,413.964750854735,783.2049385235447,595.8914036653889,417.37283388986987,821.0734796158133
1533044856.339,455.3583999529002,681.5652262639661,603.0814472509584,347.2240868453569,477.5040640595163
1533044856.343,503.6545230515616,663.6273659507168,775.3778291235625,413.86755142440575,727.9018094825689
1533044856.3470001,417.41245537084774,831.0310698433753,746.6617654781285,427.895864242134,987.0353306973145
1533044856.351,341.52056620674284,848.9689301566247,638.9728509163472,322.6727436753646,815.2536044126103
1533044856.355,413.964750854735,813.093209530126,509.7432127290868,301.63386592670815,745.3733610659549
1533044856.359,524.3548800847797,789.1801438702108,473.8371054980833,277.08252275671583,902.5994363557631
1533044856.363,524.3548800847797,765.2670782102954,682.0542981673055,326.17802614082865,955.0081281190326
1533044856.367,448.45592595240396,795.1553492168767,753.8371054980832,399.83205565080567,835.6350935975978
1533044856.37,389.8166893054043,801.1305545635427,682.0542981673055,378.7931779021493,727.9018094825689
1533044856.3739998,403.61457233812604,807.11800418346,588.716063645434,354.2418347321569,733.7276476726604
1533044856.3779998,524.3548800847797,801.1305545635427,567.1753400199549,333.19577402762866,684.2288935109925
1533044856.3820002,579.5464122156666,813.093209530126,761.0271490836528,371.77543001534923,861.8364579857882
1533044856.3860002,520.9001106003961,848.9689301566247,775.3778291235625,427.895864242134,707.5203202975814
1533044856.39,472.6039875017347,890.8198561297895,739.4864254581736,420.87811635533393,643.4659151410175
1533044856.394,458.80610446901295,932.6707821029539,674.8642545817361,403.3445210721416,917.1550873506591
1533044856.3979998,562.3008246668321,896.7950614764553,560.0,406.84980353760574,570.6757341927606
1533044856.4020002,607.1421782811101,801.1305545635427,638.9728509163472,459.4577723430545,428.00530989784835
1533044856.4060001,541.6004676336141,837.0062751900414,761.0271490836528,526.1012369221033,602.7029367710426
1533044856.41,531.2502891170051,854.9441355032907,796.9185527490416,533.1118018530316,902.5994363557631
1533044856.4129999,462.26087395339647,789.1801438702108,739.4864254581736,455.9524898775904,890.9537229624686
1533044856.417,507.1022275676744,765.2670782102954,610.2567872709132,427.895864242134,835.6350935975978
1533044856.421,617.492356797719,765.2670782102954,710.7703618127396,459.4577723430545,917.1550873506591
1533044856.425,534.7050586013886,777.2174889036274,962.0542981673055,533.1118018530316,829.8092554075063
1533044856.429,469.15628298562194,783.2049385235447,1012.3110854382188,578.7092057275521,978.2995549056216
1533044856.4329998,407.06227685423875,771.2422835569614,926.1481909363021,494.53214586531095,1161.7329575705087
1533044856.437,507.1022275676744,705.4782919238814,703.5803182271701,462.96305480851856,791.9562146391328
1533044856.441,655.4383013797715,657.6521606040509,796.9185527490416,484.0091155130468,596.877098580951
1533044856.445,579.5464122156666,681.5652262639661,969.2296381872604,519.0834890353033,890.9537229624686
1533044856.449,541.6004676336141,687.5404316106321,825.6346163944756,589.2322360798163,582.3214475860551
1533044856.4520001,469.15628298562194,705.4782919238814,782.567872709132,529.6065193875675,527.0028182211843
1533044856.456,462.26087395339647,711.4534972705475,667.6889145617812,455.9524898775904,611.4387125627356
1533044856.46,614.0446522816063,657.6521606040509,739.4864254581736,526.1012369221033,634.7301393493245
1533044856.464,582.9941167317793,681.5652262639661,904.6074673108229,592.7375185452803,1132.6156925938283
1533044856.468,531.2502891170051,723.4161522371307,840.0,606.7658313630086,1033.624147257381
1533044856.4720001,496.7520490510654,687.5404316106321,804.0938927689965,543.6348322052957,707.5203202975814
1533044856.476,462.26087395339647,639.7143002908016,682.0542981673055,476.99855058211864,800.6919904308259
1533044856.48,576.0987076995539,615.8012346308861,732.3110854382188,491.0268633998469,908.4252745458547
1533044856.484,579.5464122156666,609.8137850109688,897.432127290868,550.6453971362238,716.2560960892745
1533044856.488,527.8025846008924,645.6895056374675,911.7975108963924,568.186175375288,861.8364579857882
1533044856.492,527.8025846008924,669.6025712973828,818.4592763745209,512.0657411485033,943.3624147257381
1533044856.495,500.2068185354489,579.9255140043875,595.8914036653889,462.96305480851856,486.2398398512093
1533044856.4989998,582.9941167317793,556.0124483444722,531.283936354566,420.87811635533393,329.013764561401
1533044856.5029998,614.0446522816063,645.6895056374675,796.9185527490416,484.0091155130468,669.6732425160965
1533044856.5070002,517.4524060842834,633.7390949441356,954.8642545817361,536.6170843184956,966.6538415123271
1533044856.5110002,445.00822143629125,550.0372429978063,832.8246599800451,519.0834890353033,669.6732425160965
1533044856.515,465.7085784695092,573.9503086577215,703.5803182271701,508.5604586830392,637.6400769509261
1533044856.519,593.3442952483883,591.8881689709709,710.7703618127396,508.5604586830392,690.0487687141955
1533044856.5229998,620.9471262821025,573.9503086577215,840.0,550.6453971362238,500.7954908461052
1533044856.5270002,545.0481721497268,627.7516453242182,890.2567872709132,599.7480834762085,853.1006821940953
1533044856.5310001,448.45592595240396,639.7143002908016,804.0938927689965,557.6631450230238,1065.6513498356628
1533044856.535,410.5099813703515,651.6647109841334,710.7703618127396,487.51439797851094,858.9265203841867
1533044856.5379999,562.3008246668321,669.6025712973828,753.8371054980832,476.99855058211864,751.1932362691579
1533044856.542,624.3948307982153,651.6647109841334,782.567872709132,508.5604586830392,1024.888371465688
1533044856.546,534.7050586013886,639.7143002908016,746.6617654781285,498.03742833077507,1199.5859983388823
1533044856.55,472.6039875017347,591.8881689709709,725.1210418526492,441.9241770598622,832.7191930091077
1533044856.554,420.8601598869605,609.8137850109688,739.4864254581736,438.41889459439807,544.4684068176816
1533044856.5579998,534.7050586013886,627.7516453242182,682.0542981673055,459.4577723430545,585.2313851876567
1533044856.562,589.8965907322755,591.8881689709709,782.567872709132,480.50383304758276,850.1907445924937
1533044856.566,489.8566400188399,597.8633743176368,947.6889145617812,505.0551762175751,1266.5503410970475
1533044856.57,438.1128124040657,579.9255140043875,897.432127290868,462.96305480851856,1246.16885191206
1533044856.574,372.56403678829906,556.0124483444722,717.9457018326945,459.4577723430545,1004.5068822807006
1533044856.5770001,479.50646150223093,550.0372429978063,574.3506800399097,452.4472074121263,823.9834172174147
1533044856.581,569.1962336990575,556.0124483444722,761.0271490836528,441.9241770598622,1097.6785524139448
1533044856.585,486.40893550272716,585.9007193510536,825.6346163944756,498.03742833077507,1263.6404034954462
1533044856.589,465.7085784695092,573.9503086577215,710.7703618127396,557.6631450230238,972.4796797024186
1533044856.593,410.5099813703515,567.9628590378042,703.5803182271701,501.549893752111,646.375852742619
1533044856.5970001,496.7520490510654,597.8633743176368,595.8914036653889,434.9064291730622,445.4768614812343
1533044856.601,610.5969477654935,615.8012346308861,717.9457018326945,445.42945952532625,771.5747254541453
1533044856.605,545.0481721497268,657.6521606040509,1005.1210418526492,484.0091155130468,1222.8774251254713
1533044856.609,534.7050586013886,699.5030865772154,962.0542981673055,543.6348322052957,1403.3949272018683
1533044856.613,479.50646150223093,717.4287026172134,796.9185527490416,515.5782065698393,1126.7958173906254
1533044856.617,448.45592595240396,699.5030865772154,682.0542981673055,452.4472074121263,797.7820528292243
1533044856.62,593.3442952483883,741.35401255038,832.8246599800451,512.0657411485033,1030.708246668891
1533044856.6239998,579.5464122156666,795.1553492168767,854.3506800399097,529.6065193875675,1240.3489767088572
1533044856.6279998,462.26087395339647,759.2796285903781,753.8371054980832,484.0091155130468,1152.9971817788157
1533044856.6320002,410.5099813703515,729.3913575837968,739.4864254581736,452.4472074121263,876.3921089806842
1533044856.6360002,410.5099813703515,675.5900209173002,581.5407236254791,413.86755142440575,850.1907445924937
1533044856.64,493.3043445349527,603.8385796643029,617.432127290868,406.84980353760574,989.9452682989161
1533044856.644,472.6039875017347,627.7516453242182,775.3778291235625,417.37283388986987,1030.708246668891
1533044856.6479998,420.8601598869605,651.6647109841334,732.3110854382188,431.40114670759806,777.4005636442369
1533044856.6520002,393.26439382151705,627.7516453242182,667.6889145617812,385.8037428330775,649.291753331109
1533044856.6560001,417.41245537084774,651.6647109841334,610.2567872709132,368.27014754988517,885.1278847723772
1533044856.659,562.3008246668321,633.7390949441356,753.8371054980832,413.86755142440575,1173.3786709638032
1533044856.6629999,558.8460551824486,585.9007193510536,911.7975108963924,466.4755202298545,1164.6428951721102
1533044856.667,455.3583999529002,627.7516453242182,926.1481909363021,515.5782065698393,1065.6513498356628
1533044856.671,448.45592595240396,645.6895056374675,847.1753400199549,501.549893752111,917.1550873506591
1533044856.675,445.00822143629125,627.7516453242182,653.323530956257,445.42945952532625,719.1660336908759
1533044856.679,524.3548800847797,609.8137850109688,653.323530956257,427.895864242134,634.7301393493245
1533044856.6829998,596.7990647327717,621.7764399775522,761.0271490836528,480.50383304758276,826.8993178059047
1533044856.687,569.1962336990575,645.6895056374675,682.0542981673055,529.6065193875675,882.2179471707757
1533044856.691,510.5569970520579,645.6895056374675,710.7703618127396,487.51439797851094,733.7276476726604
1533044856.695,476.05875698611817,663.6273659507168,682.0542981673055,462.96305480851856,818.1635420142118
1533044856.699,582.9941167317793,669.6025712973828,624.6074673108229,455.9524898775904,762.8389496624524
1533044856.7020001,631.2902398304408,651.6647109841334,768.2024891036076,459.4577723430545,791.9562146391328
1533044856.706,565.7485291829448,657.6521606040509,897.432127290868,526.1012369221033,1048.179798252277
1533044856.71,493.3043445349527,633.7390949441356,933.323530956257,505.0551762175751,1120.9699792005338
1533044856.714,382.91421530490805,621.7764399775522,832.8246599800451,431.40114670759806,885.1278847723772
1533044856.718,472.6039875017347,639.7143002908016,761.0271490836528,427.895864242134,783.2204388474398
1533044856.7220001,562.3008246668321,609.8137850109688,847.1753400199549,491.0268633998469,812.3377038241202
1533044856.726,489.8566400188399,609.8137850109688,875.8914036653889,547.1401146707598,765.7548502509424
1533044856.73,451.9106954367875,639.7143002908016,789.7432127290868,543.6348322052957,754.1091368576479
1533044856.734,386.3619198210208,621.7764399775522,667.6889145617812,469.98080269531863,724.9918718809674
1533044856.738,451.9106954367875,603.8385796643029,646.1481909363021,438.41889459439807,559.0300207994661
1533044856.742,548.5029416341104,603.8385796643029,832.8246599800451,505.0551762175751,727.9018094825689
1533044856.745,469.15628298562194,627.7516453242182,854.3506800399097,519.0834890353033,888.0437853608672
1533044856.7489998,448.45592595240396,609.8137850109688,840.0,494.53214586531095,716.2560960892745
1533044856.7529998,413.964750854735,603.8385796643029,868.716063645434,448.93474199079037,850.1907445924937
1533044856.7570002,445.00822143629125,567.9628590378042,624.6074673108229,403.3445210721416,637.6400769509261
1533044856.7610002,562.3008246668321,556.0124483444722,667.6889145617812,455.9524898775904,640.5559775394161
1533044856.765,476.05875698611817,550.0372429978063,933.323530956257,568.186175375288,972.4796797024186
1533044856.769,441.5605169201785,538.0745880312229,854.3506800399097,582.2144881930162,934.6266389340451
1533044856.7729998,420.8601598869605,579.9255140043875,710.7703618127396,515.5782065698393,701.7004450943784
1533044856.7770002,403.61457233812604,550.0372429978063,646.1481909363021,512.0657411485033,646.375852742619
1533044856.7810001,538.1527631175013,472.31059639814293,739.4864254581736,529.6065193875675,666.7573419276065
1533044856.784,486.40893550272716,460.3479414315596,897.432127290868,557.6631450230238,672.583180117698
1533044856.7879999,410.5099813703515,567.9628590378042,868.716063645434,564.6808929098239,1021.9784338640865
1533044856.792,365.66862775607353,621.7764399775522,753.8371054980832,526.1012369221033,797.7820528292243
1533044856.796,376.0188062726825,556.0124483444722,610.2567872709132,459.4577723430545,387.24233152787343
1533044856.8,531.2502891170051,544.0497933778889,667.6889145617812,420.87811635533393,911.3352121474561
1533044856.804,534.7050586013886,579.9255140043875,854.3506800399097,491.0268633998469,984.1253930957131
1533044856.8079998,451.9106954367875,609.8137850109688,890.2567872709132,526.1012369221033,745.3733610659549
1533044856.812,413.964750854735,615.8012346308861,811.283936354566,484.0091155130468,957.9180657206341
1533044856.816,407.06227685423875,585.9007193510536,682.0542981673055,476.99855058211864,806.5178286209173
1533044856.82,500.2068185354489,585.9007193510536,768.2024891036076,473.4860851607827,547.3843074061717
1533044856.824,520.9001106003961,597.8633743176368,847.1753400199549,505.0551762175751,579.4115099844537
1533044856.8270001,469.15628298562194,591.8881689709709,796.9185527490416,557.6631450230238,596.877098580951
1533044856.831,396.7120983376298,591.8881689709709,847.1753400199549,536.6170843184956,524.0869176326942
1533044856.835,393.26439382151705,609.8137850109688,753.8371054980832,512.0657411485033,762.8389496624524
1533044856.839,551.9506461502231,645.6895056374675,603.0814472509584,462.96305480851856,925.8908631423521
1533044856.843,569.1962336990575,669.6025712973828,789.7432127290868,501.549893752111,905.5093739573647
1533044856.8470001,507.1022275676744,663.6273659507168,854.3506800399097,592.7375185452803,832.7191930091077
1533044856.851,482.9541660183437,687.5404316106321,789.7432127290868,536.6170843184956,759.9290120608508
1533044856.855,445.00822143629125,675.5900209173002,674.8642545817361,494.53214586531095,669.6732425160965
1533044856.859,534.7050586013886,651.6647109841334,667.6889145617812,522.5887715007674,550.2942450077732
1533044856.863,617.492356797719,645.6895056374675,840.0,582.2144881930162,567.7657965911592
1533044856.867,555.3983506663359,633.7390949441356,868.716063645434,603.2605488975445,850.1907445924937
1533044856.87,517.4524060842834,597.8633743176368,746.6617654781285,571.691457840752,794.8721152276228
1533044856.8739998,458.80610446901295,591.8881689709709,638.9728509163472,529.6065193875675,841.4549688008008
1533044856.8779998,500.2068185354489,603.8385796643029,667.6889145617812,462.96305480851856,896.7735981656716
1533044856.8820002,607.1421782811101,567.9628590378042,746.6617654781285,498.03742833077507,640.5559775394161
1533044856.8860002,500.2068185354489,538.0745880312229,739.4864254581736,554.1578625575597,669.6732425160965
1533044856.89,427.76263388745673,579.9255140043875,717.9457018326945,522.5887715007674,809.4277662225188
1533044856.894,424.30786440307327,609.8137850109688,646.1481909363021,498.03742833077507,448.3867990828358
1533044856.8979998,476.05875698611817,567.9628590378042,567.1753400199549,491.0268633998469,264.95339641794857
1533044856.9020002,541.6004676336141,573.9503086577215,789.7432127290868,505.0551762175751,940.4524771241366
1533044856.9060001,482.9541660183437,603.8385796643029,911.7975108963924,540.1295497398315,1074.387125627356
1533044856.909,458.80610446901295,579.9255140043875,796.9185527490416,533.1118018530316,821.0734796158133
1533044856.9129999,389.8166893054043,544.0497933778889,739.4864254581736,487.51439797851094,628.9102641461216
1533044856.917,427.76263388745673,436.43487577164433,674.8642545817361,522.5887715007674,492.05971505441227
1533044856.921,651.9905968636588,370.6708841385644,847.1753400199549,659.3738001684574,969.5637791139285
1533044856.925,569.1962336990575,508.1863170246416,875.8914036653889,610.2711138284726,981.2154554941116
1533044856.929,407.06227685423875,573.9503086577215,703.5803182271701,438.41889459439807,797.7820528292243
1533044856.9329998,396.7120983376298,603.8385796643029,761.0271490836528,413.86755142440575,724.9918718809674
1533044856.937,389.8166893054043,645.6895056374675,682.0542981673055,357.74711719762104,547.3843074061717
1533044856.941,438.1128124040657,639.7143002908016,725.1210418526492,270.06477486991577,608.5287749611341
1533044856.945,496.7520490510654,627.7516453242182,875.8914036653889,371.77543001534923,634.7301393493245
1533044856.949,482.9541660183437,657.6521606040509,811.283936354566,448.93474199079037,745.3733610659549
1533044856.9520001,358.7661537555773,699.5030865772154,674.8642545817361,305.1391483921723,847.2808069908923
1533044856.956,379.4665107887953,699.5030865772154,495.3778291235625,249.01871416538754,570.6757341927606
1533044856.96,524.3548800847797,675.5900209173002,516.9185527490416,319.16746120990047,527.0028182211843
1533044856.964,520.9001106003961,633.7390949441356,610.2567872709132,350.72936931082097,701.7004450943784
1533044856.968,493.3043445349527,669.6025712973828,603.0814472509584,413.86755142440575,987.0353306973145
1533044856.9720001,496.7520490510654,693.515636957298,682.0542981673055,438.41889459439807,1228.7032633155627
1533044856.976,555.3983506663359,669.6025712973828,552.8246599800451,413.86755142440575,960.8339663091241
1533044856.98,665.7884798963804,639.7143002908016,574.3506800399097,403.3445210721416,870.5722337774812
1533044856.984,565.7485291829448,597.8633743176368,818.4592763745209,445.42945952532625,957.9180657206341
1533044856.988,458.80610446901295,603.8385796643029,782.567872709132,480.50383304758276,1019.0625332755965
1533044856.9910002,396.7120983376298,651.6647109841334,717.9457018326945,434.9064291730622,905.5093739573647
1533044856.995,351.87074472335183,651.6647109841334,653.323530956257,403.3445210721416,856.0165827825853
1533044856.9989998,524.3548800847797,615.8012346308861,660.5135745418264,424.38339882079805,917.1550873506591
1533044857.0029998,579.5464122156666,603.8385796643029,804.0938927689965,462.96305480851856,847.2808069908923
1533044857.0070002,465.7085784695092,627.7516453242182,811.283936354566,469.98080269531863,623.08442595603
1533044857.0110002,410.5099813703515,633.7390949441356,667.6889145617812,448.93474199079037,323.1879263713095
1533044857.015,376.0188062726825,591.8881689709709,631.7975108963924,396.3267731853416,777.4005636442369
1533044857.019,520.9001106003961,550.0372429978063,653.323530956257,382.29846036761336,905.5093739573647
1533044857.0229998,638.192713830937,603.8385796643029,818.4592763745209,455.9524898775904,556.1200831978647
1533044857.0270002,579.5464122156666,657.6521606040509,890.2567872709132,540.1295497398315,643.4659151410175
1533044857.0310001,531.2502891170051,687.5404316106321,854.3506800399097,515.5782065698393,800.6919904308259
1533044857.034,510.5569970520579,693.515636957298,782.567872709132,466.4755202298545,742.4634234643534
1533044857.0379999,607.1421782811101,657.6521606040509,660.5135745418264,459.4577723430545,457.1225748745288
1533044857.042,717.5323075111546,681.5652262639661,847.1753400199549,484.0091155130468,940.4524771241366
1533044857.046,665.7884798963804,729.3913575837968,904.6074673108229,557.6631450230238,1185.0243843570977
1533044857.05,593.3442952483883,747.3292178970461,789.7432127290868,557.6631450230238,917.1550873506591
1533044857.054,555.3983506663359,741.35401255038,782.567872709132,501.549893752111,733.7276476726604
1533044857.0579998,645.0881228631625,723.4161522371307,768.2024891036076,529.6065193875675,672.583180117698
1533044857.062,693.3842459618239,711.4534972705475,854.3506800399097,592.7375185452803,835.6350935975978
1533044857.066,572.651003183441,711.4534972705475,954.8642545817361,561.168427488488,861.8364579857882
1533044857.07,524.3548800847797,693.515636957298,983.5803182271701,592.7375185452803,998.681044090609
1533044857.074,472.6039875017347,705.4782919238814,918.9728509163472,578.7092057275521,917.1550873506591
1533044857.0770001,527.8025846008924,663.6273659507168,696.4049782072152,561.168427488488,631.8202017477231
1533044857.081,645.0881228631625,621.7764399775522,761.0271490836528,624.2994266462009,521.1769800310927
1533044857.085,565.7485291829448,669.6025712973828,1026.6617654781285,610.2711138284726,946.2723523273396
1533044857.089,507.1022275676744,651.6647109841334,976.4049782072152,575.1967403062162,1158.8230199689074
1533044857.093,448.45592595240396,591.8881689709709,789.7432127290868,512.0657411485033,754.1091368576479
1533044857.0970001,451.9106954367875,556.0124483444722,725.1210418526492,441.9241770598622,698.7845445058884
1533044857.101,593.3442952483883,538.0745880312229,804.0938927689965,469.98080269531863,623.08442595603
1533044857.105,593.3442952483883,514.1615223713077,875.8914036653889,536.6170843184956,803.6019280324273
1533044857.109,500.2068185354489,484.26100709147494,890.2567872709132,543.6348322052957,949.182289928941
1533044857.113,451.9106954367875,514.1615223713077,875.8914036653889,455.9524898775904,765.7548502509424
1533044857.1160002,482.9541660183437,538.0745880312229,796.9185527490416,427.895864242134,829.8092554075063
1533044857.12,579.5464122156666,484.26100709147494,811.283936354566,480.50383304758276,730.8117470841704
1533044857.1239998,548.5029416341104,448.39753073822766,983.5803182271701,505.0551762175751,655.111628534312
1533044857.1279998,493.3043445349527,496.22366205805827,969.2296381872604,522.5887715007674,899.6894987541617
1533044857.1320002,472.6039875017347,585.9007193510536,890.2567872709132,515.5782065698393,931.7167013324436
1533044857.1360002,427.76263388745673,567.9628590378042,725.1210418526492,455.9524898775904,669.6732425160965
1533044857.14,510.5569970520579,556.0124483444722,732.3110854382188,445.42945952532625,780.3105012458383
1533044857.144,593.3442952483883,609.8137850109688,825.6346163944756,564.6808929098239,660.9374667244035
1533044857.1479998,555.3983506663359,633.7390949441356,883.0814472509584,641.840204885265,818.1635420142118
1533044857.1520002,479.50646150223093,645.6895056374675,883.0814472509584,610.2711138284726,879.3080095691741
1533044857.1560001,472.6039875017347,651.6647109841334,703.5803182271701,554.1578625575597,588.1472857761466
1533044857.159,534.7050586013886,603.8385796643029,725.1210418526492,515.5782065698393,835.6350935975978
1533044857.1629999,534.7050586013886,579.9255140043875,947.6889145617812,561.168427488488,1083.1169384321604
1533044857.167,482.9541660183437,603.8385796643029,976.4049782072152,589.2322360798163,1190.8502225471893
1533044857.171,400.1668678220133,603.8385796643029,969.2296381872604,554.1578625575597,1278.196054490342
1533044857.175,341.52056620674284,579.9255140043875,818.4592763745209,515.5782065698393,853.1006821940953
1533044857.179,472.6039875017347,550.0372429978063,761.0271490836528,476.99855058211864,579.4115099844537
1533044857.1829998,586.4488862161628,550.0372429978063,962.0542981673055,526.1012369221033,885.1278847723772
1533044857.187,527.8025846008924,591.8881689709709,962.0542981673055,554.1578625575597,803.6019280324273
1533044857.191,496.7520490510654,627.7516453242182,875.8914036653889,512.0657411485033,646.375852742619
1533044857.195,445.00822143629125,603.8385796643029,832.8246599800451,480.50383304758276,608.5287749611341
1533044857.199,524.3548800847797,544.0497933778889,717.9457018326945,484.0091155130468,759.9290120608508
1533044857.2020001,589.8965907322755,567.9628590378042,818.4592763745209,476.99855058211864,1024.888371465688
1533044857.206,510.5569970520579,633.7390949441356,1005.1210418526492,476.99855058211864,1321.8689704619185
1533044857.21,479.50646150223093,663.6273659507168,933.323530956257,469.98080269531863,1182.1144467554961
1533044857.214,441.5605169201785,675.5900209173002,818.4592763745209,438.41889459439807,751.1932362691579
1533044857.218,493.3043445349527,633.7390949441356,861.5407236254791,396.3267731853416,850.1907445924937
1533044857.2220001,596.7990647327717,615.8012346308861,1019.4864254581736,420.87811635533393,861.8364579857882
1533044857.226,589.8965907322755,633.7390949441356,1069.7432127290867,533.1118018530316,873.4821713790827
1533044857.23,548.5029416341104,621.7764399775522,1033.8371054980832,543.6348322052957,823.9834172174147
1533044857.234,520.9001106003961,645.6895056374675,947.6889145617812,452.4472074121263,506.62132903619676
1533044857.238,524.3548800847797,645.6895056374675,904.6074673108229,427.895864242134,672.583180117698
1533044857.2410002,600.2467692488846,633.7390949441356,1005.1210418526492,519.0834890353033,931.7167013324436
1533044857.245,596.7990647327717,621.7764399775522,990.7703618127396,568.186175375288,841.4549688008008
1533044857.2489998,541.6004676336141,609.8137850109688,947.6889145617812,526.1012369221033,751.1932362691579
1533044857.2529998,493.3043445349527,669.6025712973828,969.2296381872604,473.4860851607827,876.3921089806842
1533044857.2570002,569.1962336990575,657.6521606040509,818.4592763745209,455.9524898775904,687.138831112594
1533044857.2610002,717.5323075111546,615.8012346308861,911.7975108963924,469.98080269531863,625.9943635576316
1533044857.265,665.7884798963804,657.6521606040509,1069.7432127290867,519.0834890353033,754.1091368576479
1533044857.269,586.4488862161628,681.5652262639661,1026.6617654781285,536.6170843184956,733.7276476726604
1533044857.2729998,531.2502891170051,699.5030865772154,997.9457018326945,505.0551762175751,777.4005636442369
1533044857.2770002,524.3548800847797,699.5030865772154,847.1753400199549,417.37283388986987,911.3352121474561
1533044857.2810001,610.5969477654935,669.6025712973828,861.5407236254791,396.3267731853416,687.138831112594
1533044857.284,569.1962336990575,651.6647109841334,1012.3110854382188,494.53214586531095,620.1744883544286
1533044857.2879999,503.6545230515616,681.5652262639661,954.8642545817361,550.6453971362238,695.8746069042869
1533044857.292,434.65804291968226,651.6647109841334,796.9185527490416,473.4860851607827,844.3649064024022
1533044857.296,403.61457233812604,615.8012346308861,674.8642545817361,396.3267731853416,751.1932362691579
1533044857.3,562.3008246668321,621.7764399775522,732.3110854382188,406.84980353760574,576.4956093959636
1533044857.304,555.3983506663359,609.8137850109688,875.8914036653889,431.40114670759806,751.1932362691579
1533044857.3079998,472.6039875017347,603.8385796643029,911.7975108963924,473.4860851607827,858.9265203841867
1533044857.312,417.41245537084774,609.8137850109688,897.432127290868,434.9064291730622,623.08442595603
1533044857.316,376.0188062726825,579.9255140043875,782.567872709132,389.3162082544134,655.111628534312
1533044857.32,489.8566400188399,514.1615223713077,753.8371054980832,364.76486508442105,946.2723523273396
1533044857.323,489.8566400188399,484.26100709147494,954.8642545817361,382.29846036761336,1077.2970632289573
1533044857.3270001,407.06227685423875,538.0745880312229,1026.6617654781285,469.98080269531863,1365.5478494203835
1533044857.331,413.964750854735,567.9628590378042,897.432127290868,466.4755202298545,1217.0515869353796
1533044857.335,400.1668678220133,579.9255140043875,789.7432127290868,413.86755142440575,1179.2045091538948
1533044857.339,489.8566400188399,597.8633743176368,782.567872709132,427.895864242134,1359.722011230292
1533044857.343,576.0987076995539,579.9255140043875,911.7975108963924,491.0268633998469,957.9180657206341
1533044857.3470001,469.15628298562194,579.9255140043875,990.7703618127396,519.0834890353033,992.861168887406
1533044857.351,379.4665107887953,579.9255140043875,854.3506800399097,476.99855058211864,1080.2070008305589
1533044857.355,379.4665107887953,615.8012346308861,775.3778291235625,462.96305480851856,791.9562146391328
1533044857.359,486.40893550272716,591.8881689709709,761.0271490836528,487.51439797851094,730.8117470841704
1533044857.363,538.1527631175013,561.9876536911382,768.2024891036076,487.51439797851094,710.430257899183
1533044857.3660002,448.45592595240396,591.8881689709709,768.2024891036076,498.03742833077507,870.5722337774812
1533044857.37,382.91421530490805,579.9255140043875,761.0271490836528,491.0268633998469,1088.9427766222518
1533044857.3739998,365.66862775607353,585.9007193510536,696.4049782072152,484.0091155130468,791.9562146391328
1533044857.3779998,476.05875698611817,597.8633743176368,560.0,459.4577723430545,608.5287749611341
1533044857.3820002,569.1962336990575,597.8633743176368,703.5803182271701,480.50383304758276,914.2451497490576
1533044857.3860002,489.8566400188399,591.8881689709709,832.8246599800451,564.6808929098239,1042.359923049074
1533044857.39,410.5099813703515,603.8385796643029,782.567872709132,578.7092057275521,1030.708246668891
1533044857.394,369.1163322721863,645.6895056374675,725.1210418526492,533.1118018530316,1030.708246668891
1533044857.3979998,424.30786440307327,657.6521606040509,660.5135745418264,519.0834890353033,1088.9427766222518
1533044857.4020002,541.6004676336141,627.7516453242182,789.7432127290868,571.691457840752,1112.2342034088408
1533044857.4060001,520.9001106003961,645.6895056374675,854.3506800399097,620.7941441807368,946.2723523273396
1533044857.409,438.1128124040657,663.6273659507168,832.8246599800451,585.7197706584803,1019.0625332755965
1533044857.4129999,382.91421530490805,645.6895056374675,825.6346163944756,508.5604586830392,1115.150103997331
1533044857.417,407.06227685423875,633.7390949441356,710.7703618127396,462.96305480851856,1039.444022460584
1533044857.421,514.0047015681706,591.8881689709709,775.3778291235625,484.0091155130468,1112.2342034088408
1533044857.425,510.5569970520579,567.9628590378042,861.5407236254791,564.6808929098239,940.4524771241366
1533044857.429,427.76263388745673,585.9007193510536,832.8246599800451,554.1578625575597,957.9180657206341
1533044857.4329998,358.7661537555773,609.8137850109688,753.8371054980832,462.96305480851856,975.38961730402
1533044857.437,400.1668678220133,597.8633743176368,552.8246599800451,420.87811635533393,885.1278847723772
1533044857.441,582.9941167317793,585.9007193510536,545.6346163944756,413.86755142440575,861.8364579857882
1533044857.445,569.1962336990575,627.7516453242182,775.3778291235625,417.37283388986987,896.7735981656716
1533044857.448,500.2068185354489,627.7516453242182,832.8246599800451,448.93474199079037,1112.2342034088408
1533044857.4520001,514.0047015681706,621.7764399775522,746.6617654781285,469.98080269531863,835.6350935975978
1533044857.456,482.9541660183437,663.6273659507168,689.2296381872604,413.86755142440575,486.2398398512093
1533044857.46,555.3983506663359,669.6025712973828,804.0938927689965,427.895864242134,856.0165827825853
1533044857.464,614.0446522816063,651.6647109841334,897.432127290868,540.1295497398315,1217.0515869353796
1533044857.468,558.8460551824486,651.6647109841334,818.4592763745209,540.1295497398315,1077.2970632289573
1533044857.4720001,493.3043445349527,663.6273659507168,725.1210418526492,501.549893752111,931.7167013324436
1533044857.476,451.9106954367875,621.7764399775522,560.0,462.96305480851856,669.6732425160965
1533044857.48,565.7485291829448,579.9255140043875,595.8914036653889,469.98080269531863,591.0572233777481
1533044857.484,617.492356797719,585.9007193510536,789.7432127290868,533.1118018530316,882.2179471707757
1533044857.488,551.9506461502231,627.7516453242182,811.283936354566,543.6348322052957,1199.5859983388823
1533044857.4910002,510.5569970520579,639.7143002908016,811.283936354566,557.6631450230238,1013.2426580723935
1533044857.495,489.8566400188399,603.8385796643029,725.1210418526492,550.6453971362238,786.1363394359298
1533044857.4989998,617.492356797719,597.8633743176368,674.8642545817361,522.5887715007674,1033.624147257381
1533044857.5029998,651.9905968636588,633.7390949441356,904.6074673108229,547.1401146707598,1135.5256301954298
1533044857.5070002,555.3983506663359,645.6895056374675,962.0542981673055,575.1967403062162,984.1253930957131
1533044857.5110002,514.0047015681706,645.6895056374675,897.432127290868,529.6065193875675,1042.359923049074
1533044857.515,482.9541660183437,639.7143002908016,775.3778291235625,494.53214586531095,995.7711064890075
1533044857.519,520.9001106003961,603.8385796643029,674.8642545817361,424.38339882079805,780.3105012458383
1533044857.5229998,634.7450093148242,579.9255140043875,811.283936354566,473.4860851607827,754.1091368576479
1533044857.5270002,593.3442952483883,609.8137850109688,840.0,575.1967403062162,856.0165827825853
1533044857.5310001,493.3043445349527,633.7390949441356,804.0938927689965,529.6065193875675,893.8636605640702
1533044857.534,479.50646150223093,609.8137850109688,789.7432127290868,508.5604586830392,605.6128743726441
1533044857.5379999,545.0481721497268,567.9628590378042,753.8371054980832,491.0268633998469,538.6485316144787
1533044857.542,607.1421782811101,556.0124483444722,875.8914036653889,487.51439797851094,1083.1169384321604
1533044857.546,596.7990647327717,579.9255140043875,933.323530956257,568.186175375288,1249.0787895136616
1533044857.55,576.0987076995539,627.7516453242182,875.8914036653889,550.6453971362238,1048.179798252277
1533044857.554,545.0481721497268,675.5900209173002,782.567872709132,484.0091155130468,928.8067637308421
1533044857.5579998,586.4488862161628,669.6025712973828,581.5407236254791,459.4577723430545,611.4387125627356
1533044857.562,627.842535314328,639.7143002908016,710.7703618127396,438.41889459439807,623.08442595603
1533044857.566,551.9506461502231,669.6025712973828,904.6074673108229,487.51439797851094,896.7735981656716
1533044857.57,486.40893550272716,693.515636957298,796.9185527490416,508.5604586830392,1013.2426580723935
1533044857.573,445.00822143629125,681.5652262639661,725.1210418526492,469.98080269531863,890.9537229624686
1533044857.5770001,431.2103384035695,675.5900209173002,595.8914036653889,399.83205565080567,628.9102641461216
1533044857.581,507.1022275676744,651.6647109841334,710.7703618127396,385.8037428330775,719.1660336908759
1533044857.585,469.15628298562194,669.6025712973828,997.9457018326945,438.41889459439807,1187.9402849455878
1533044857.589,358.7661537555773,699.5030865772154,983.5803182271701,417.37283388986987,1094.7686148123435
1533044857.593,362.21385827169007,663.6273659507168,926.1481909363021,420.87811635533393,564.8498960026692
1533044857.5970001,417.41245537084774,651.6647109841334,897.432127290868,413.86755142440575,561.9399584010677
1533044857.601,455.3583999529002,723.4161522371307,832.8246599800451,301.63386592670815,800.6919904308259
1533044857.605,434.65804291968226,747.3292178970461,847.1753400199549,319.16746120990047,672.583180117698
1533044857.609,369.1163322721863,699.5030865772154,926.1481909363021,375.28071248081335,623.08442595603
1533044857.613,313.9248001412994,741.35401255038,875.8914036653889,315.6621787444364,591.0572233777481
1533044857.6160002,241.4806154933072,753.3044232437121,761.0271490836528,220.9620885299311,625.9943635576316
1533044857.62,348.4159752389684,717.4287026172134,732.3110854382188,178.87715007674643,704.61038269598
1533044857.6239998,355.3184492394646,765.2670782102954,782.567872709132,196.41074535993874,727.9018094825689
1533044857.6279998,248.3760245255327,777.2174889036274,832.8246599800451,210.43905817766696,678.403055320901
1533044857.6320002,196.63219691075852,783.2049385235447,926.1481909363021,175.36468465541049,701.7004450943784
1533044857.6360002,134.53819077937533,789.1801438702108,818.4592763745209,80.67177739677706,707.5203202975814
1533044857.64,231.13043697669823,819.068414876792,804.0938927689965,80.67177739677706,783.2204388474398
1533044857.644,286.3219691075852,795.1553492168767,1062.567872709132,161.3363718376823,937.5365765356466
1533044857.6479998,196.63219691075852,807.11800418346,1120.0,185.8877150076747,987.0353306973145
1533044857.6520002,141.43359981160089,872.88199581654,969.2296381872604,119.25143338449763,955.0081281190326
1533044857.6560001,217.33255394397648,842.9814805367073,825.6346163944756,150.81334148541816,955.0081281190326
1533044857.659,362.21385827169007,848.9689301566247,904.6074673108229,231.48511888219522,1164.6428951721102
1533044857.6629999,410.5099813703515,902.7702668231212,969.2296381872604,287.5983701531081,1027.7983090672894
1533044857.667,334.6180922062466,944.6211927962859,875.8914036653889,280.5878052221799,925.8908631423521
1533044857.671,310.47003065691587,944.6211927962859,875.8914036653889,245.51343169992344,940.4524771241366
1533044857.675,300.11985214030693,926.6833324830366,782.567872709132,234.99040134765931,646.375852742619
1533044857.679,382.91421530490805,854.9441355032907,667.6889145617812,185.8877150076747,585.2313851876567
1533044857.6829998,424.30786440307327,860.9193408499566,746.6617654781285,164.8488372590182,707.5203202975814
1533044857.687,410.5099813703515,920.7081271363706,847.1753400199549,287.5983701531081,838.5450311991992
1533044857.691,451.9106954367875,926.6833324830366,825.6346163944756,399.83205565080567,1024.888371465688
1533044857.695,344.9682707228556,890.8198561297895,746.6617654781285,298.1214005053722,896.7735981656716
1533044857.698,413.964750854735,890.8198561297895,710.7703618127396,245.51343169992344,658.0215661359135
1533044857.7020001,541.6004676336141,914.7329217897046,811.283936354566,319.16746120990047,995.7711064890075
1533044857.706,482.9541660183437,950.5963981429519,796.9185527490416,399.83205565080567,1284.0218926804337
1533044857.71,493.3043445349527,986.4721187694505,775.3778291235625,455.9524898775904,1179.2045091538948
1533044857.714,500.2068185354489,962.5590531095353,689.2296381872604,413.86755142440575,946.2723523273396
1533044857.718,545.0481721497268,914.7329217897046,531.283936354566,347.2240868453569,620.1744883544286
1533044857.7220001,651.9905968636588,890.8198561297895,674.8642545817361,368.27014754988517,707.5203202975814
1533044857.726,607.1421782811101,908.7454721697873,782.567872709132,438.41889459439807,791.9562146391328
1533044857.73,531.2502891170051,932.6707821029539,732.3110854382188,462.96305480851856,949.182289928941
1533044857.734,482.9541660183437,926.6833324830366,638.9728509163472,434.9064291730622,943.3624147257381
1533044857.738,489.8566400188399,860.9193408499566,524.0938927689965,403.3445210721416,454.21263727292734
