timestamps,TP9,AF7,AF8,TP10,Right AUX
1533054424.965,1264.8281013862058,1405.8359466666666,982.9370442420843,1306.92031356158,1066.7585545050888
1533054424.9689999,1271.908437917349,1401.46048,975.1053718268507,1305.77655877466,935.5524570840447
1533054424.9729998,1268.6892642422324,1404.3754666666666,973.1464512048121,1306.92031356158,830.0139431217989
1533054424.9770002,1263.5401682655718,1405.8359466666666,980.9801286565062,1322.9422556176994,881.3549515467824
1533054424.981,1270.6205047967146,1405.8359466666666,972.1679934120231,1318.3648927102095,946.960921010998
1533054424.985,1277.7008413278575,1398.5425066666667,973.1464512048121,1308.0640683485003,1066.7585545050888
1533054424.9889998,1278.3441487617056,1392.7095466666667,982.9370442420843,1317.2211379232892,730.1884233841104
1533054424.9929998,1268.0459568083843,1394.16704,975.1053718268507,1311.49767646907,564.7510926748192
1533054424.9970002,1262.8968608317236,1395.62752,974.1269140340618,1298.9093425335207,852.8367124830927
1533054425.0010002,1268.6892642422324,1394.16704,982.9370442420843,1305.77655877466,827.1632875169073
1533054425.005,1275.7696007733753,1391.2520533333334,977.0622874124289,1308.0640683485003,810.0476708727838
1533054425.008,1279.63208188234,1383.9586133333332,977.0622874124289,1314.9312845896397,815.754823589954
1533054425.012,1286.0691109796348,1382.50112,979.9996658272565,1327.5196185251891,1197.9646519261328
1533054425.016,1291.8615143901434,1383.9586133333332,974.1269140340618,1332.096981432679,1386.2130689819435
1533054425.02,1295.08068806526,1383.9586133333332,971.189535619234,1337.8204428868983,1052.4935934658567
1533054425.024,1300.2297840419205,1385.4190933333334,976.0838296196398,1341.2517072476587,969.7778488649047
1533054425.0279999,1308.598053693698,1391.2520533333334,982.9370442420843,1352.6962863962879,1032.5273212168415
1533054425.032,1314.3904571042065,1397.0850133333333,984.895964864123,1365.2846203318372,966.9271932600132
1533054425.036,1312.4592165497243,1398.5425066666667,982.9370442420843,1357.2736493037778,750.1546956331255
1533054425.04,1307.3101205730636,1395.62752,983.9155020348733,1353.8423849430174,884.2114486590611
1533054425.044,1302.161024596403,1395.62752,985.874422656912,1349.2626782757181,1103.8346018908403
1533054425.0470002,1298.9418509212865,1395.62752,985.874422656912,1337.8204428868983,1120.9502185349638
1533054425.051,1297.0119286197423,1400.0,978.0427502416785,1342.397805794388,961.220040542843
1533054425.055,1295.723995499108,1391.2520533333334,971.189535619234,1341.2517072476587,818.6054791948455
1533054425.059,1298.9418509212865,1388.33408,981.9585864492952,1329.8094718588386,929.8453043668745
1533054425.063,1299.5864766080726,1395.62752,988.8118010717398,1336.6743443401688,684.54872616891
1533054425.0670002,1292.5061400769296,1395.62752,977.0622874124289,1332.096981432679,675.9909178468482
1533054425.071,1291.2182069562955,1392.7095466666667,972.1679934120231,1327.5196185251891,915.5861848350296
1533054425.075,1289.9315920885992,1382.50112,976.0838296196398,1327.5196185251891,904.1777209080763
1533054425.079,1287.3557258473309,1382.50112,976.0838296196398,1309.2101668952298,1120.9502185349638
1533054425.083,1282.2066298706702,1383.9586133333332,975.1053718268507,1304.6304602279306,1511.7178551932043
1533054425.0870001,1277.7008413278575,1378.1256533333333,974.1269140340618,1302.3429506540904,1468.9288135828956
1533054425.09,1282.2066298706702,1378.1256533333333,974.1269140340618,1312.6414312559903,1004.0090821531518
1533054425.0939999,1286.0691109796348,1382.50112,979.9996658272565,1329.8094718588386,1015.4175460801051
1533054425.0979998,1284.7811778590005,1383.9586133333332,985.874422656912,1340.1079524607385,1237.897196424163
1533054425.1020002,1286.0691109796348,1385.4190933333334,983.9155020348733,1348.1189234887981,1123.8008741398555
1533054425.106,1281.563322436822,1381.0436266666666,979.0212080344676,1345.8314139149577,1120.9502185349638
1533054425.11,1278.3441487617056,1376.66816,976.0838296196398,1346.975168701878,1023.9753544021669
1533054425.1139998,1278.3441487617056,1385.4190933333334,979.0212080344676,1343.5415605813082,867.0958320149375
1533054425.1179998,1285.4258035457867,1391.2520533333334,990.7687166573178,1344.6853153682284,741.5968873110637
1533054425.1220002,1291.2182069562955,1388.33408,998.6023941090119,1353.8423849430174,1120.9502185349638
1533054425.1260002,1299.5864766080726,1391.2520533333334,993.7060950721456,1364.1408655449172,1072.4598657148717
1533054425.13,1315.6783902248408,1391.2520533333334,984.895964864123,1367.574473665487,681.6980705640184
1533054425.133,1315.6783902248408,1398.5425066666667,988.8118010717398,1367.574473665487,784.3800874139855
1533054425.137,1312.4592165497243,1402.9179733333333,993.7060950721456,1371.0080817860567,730.1884233841104
1533054425.141,1318.8962456470192,1402.9179733333333,987.8333432789507,1371.0080817860567,550.4919731429744
1533054425.145,1325.976582178162,1408.7509333333333,979.0212080344676,1357.2736493037778,547.6413175380828
1533054425.149,1328.5511301664924,1410.2084266666666,977.0622874124289,1349.2626782757181,658.8811427101117
1533054425.1529999,1327.9078227326443,1405.8359466666666,971.189535619234,1352.6962863962879,887.0621042639527
1533054425.157,1325.333274744314,1402.9179733333333,964.3363209967896,1338.9641976738185,841.4282485561394
1533054425.161,1320.8274862015014,1405.8359466666666,970.2090727899844,1335.5305895532488,926.994648761983
1533054425.165,1318.252938213171,1402.9179733333333,974.1269140340618,1346.975168701878,792.9378957360473
1533054425.169,1319.539553080867,1400.0,976.0838296196398,1353.8423849430174,447.80995629300725
1533054425.1720002,1311.8159091158761,1402.9179733333333,977.0622874124289,1348.1189234887981,918.4368404399212
1533054425.176,1298.9418509212865,1402.9179733333333,979.0212080344676,1334.3868347663285,1343.4298688790218
1533054425.18,1297.6552360535902,1400.0,977.0622874124289,1332.096981432679,1006.8597377580434
1533054425.184,1295.08068806526,1401.46048,976.0838296196398,1335.5305895532488,613.2414454949113
1533054425.188,1282.849937304518,1404.3754666666666,973.1464512048121,1330.9532266457588,601.832981567958
1533054425.1920002,1275.7696007733753,1401.46048,962.3774003747509,1316.07503937656,915.5861848350296
1533054425.196,1277.0575338940096,1398.5425066666667,966.2932365823676,1309.2101668952298,1135.2093380668089
1533054425.2,1279.63208188234,1400.0,972.1679934120231,1325.2297651915396,1066.7585545050888
1533054425.204,1286.7124184134827,1410.2084266666666,966.2932365823676,1328.6633733121093,610.3907898900197
1533054425.208,1284.1378704251524,1414.5838933333334,970.2090727899844,1325.2297651915396,208.21468930482592
1533054425.2120001,1274.4829859056792,1397.0850133333333,970.2090727899844,1332.096981432679,656.0246455978331
1533054425.215,1279.63208188234,1391.2520533333334,965.3147787895786,1338.9641976738185,1078.1670184320421
1533054425.2189999,1286.7124184134827,1404.3754666666666,962.3774003747509,1335.5305895532488,969.7778488649047
1533054425.2229998,1289.9315920885992,1402.9179733333333,962.3774003747509,1353.8423849430174,941.2537682938279
1533054425.2270002,1291.2182069562955,1391.2520533333334,964.3363209967896,1362.997110757997,849.980215370814
1533054425.231,1294.4360623784737,1388.33408,959.4400219599231,1348.1189234887981,830.0139431217989
1533054425.235,1297.6552360535902,1391.2520533333334,955.5241857523064,1344.6853153682284,969.7778488649047
1533054425.2389998,1297.6552360535902,1392.7095466666667,956.504648581556,1345.8314139149577,978.3356571869665
1533054425.2429998,1295.723995499108,1389.79456,954.5457279595173,1351.5525316093679,992.5947767188114
1533054425.2470002,1297.0119286197423,1392.7095466666667,958.4615641671342,1354.9861397299376,978.3356571869665
1533054425.2510002,1305.3788800185812,1395.62752,956.504648581556,1359.5635026374273,915.5861848350296
1533054425.254,1315.0350827909926,1394.16704,952.5868073374787,1362.997110757997,824.3126319120157
1533054425.258,1316.9650050925368,1402.9179733333333,961.3989425819618,1361.8533559710768,949.8115766158896
1533054425.262,1317.609630779323,1410.2084266666666,960.4204847891727,1361.8533559710768,687.3993817738016
1533054425.266,1315.0350827909926,1404.3754666666666,959.4400219599231,1362.997110757997,647.4668372757714
1533054425.27,1310.5292942481801,1404.3754666666666,964.3363209967896,1365.2846203318372,804.3463596630006
1533054425.274,1307.9534280069115,1402.9179733333333,963.3578632040005,1364.1408655449172,926.994648761983
1533054425.2779999,1300.8730914757687,1397.0850133333333,966.2932365823676,1353.8423849430174,969.7778488649047
1533054425.282,1298.2985434874383,1385.4190933333334,969.2306149971953,1357.2736493037778,561.9004370699278
1533054425.286,1295.723995499108,1383.9586133333332,971.189535619234,1360.7072574243475,507.70877304005256
1533054425.29,1291.8615143901434,1391.2520533333334,969.2306149971953,1340.1079524607385,564.7510926748192
1533054425.294,1286.0691109796348,1388.33408,968.2521572044063,1320.6524022840497,1049.6429378609653
1533054425.2970002,1281.563322436822,1379.5861333333332,967.2736994116173,1321.7985008307792,1343.4298688790218
1533054425.301,1276.4142264601614,1381.0436266666666,963.3578632040005,1321.7985008307792,1069.6092101099803
1533054425.305,1272.5517453511968,1388.33408,963.3578632040005,1317.2211379232892,1283.5310521319764
1533054425.309,1275.1262933395271,1386.8765866666668,960.4204847891727,1319.5086474971297,901.3212237957976
1533054425.313,1275.7696007733753,1385.4190933333334,955.5241857523064,1317.2211379232892,653.1739899929415
1533054425.3170002,1274.4829859056792,1389.79456,962.3774003747509,1317.2211379232892,755.8560068429086
1533054425.321,1272.5517453511968,1389.79456,964.3363209967896,1314.9312845896397,513.4100842498357
1533054425.325,1268.6892642422324,1386.8765866666668,972.1679934120231,1317.2211379232892,601.832981567958
1533054425.329,1279.63208188234,1385.4190933333334,979.9996658272565,1324.0860104046194,778.6729346968153
1533054425.333,1283.4945629913045,1388.33408,975.1053718268507,1336.6743443401688,1015.4175460801051
1533054425.3370001,1282.849937304518,1391.2520533333334,970.2090727899844,1336.6743443401688,815.754823589954
1533054425.34,1284.7811778590005,1379.5861333333332,970.2090727899844,1325.2297651915396,590.4245176410046
1533054425.3439999,1282.2066298706702,1372.2926933333333,962.3774003747509,1321.7985008307792,810.0476708727838
1533054425.3479998,1295.08068806526,1376.66816,961.3989425819618,1346.975168701878,698.8078457007549
1533054425.3520002,1297.6552360535902,1385.4190933333334,957.4831063743451,1356.1298945168576,581.8667093189429
1533054425.356,1291.8615143901434,1392.7095466666667,953.5672701667283,1346.975168701878,596.1258288507877
1533054425.36,1297.6552360535902,1395.62752,959.4400219599231,1354.9861397299376,849.980215370814
1533054425.3639998,1305.3788800185812,1398.5425066666667,961.3989425819618,1362.997110757997,1035.3838183291202
1533054425.3679998,1303.447639464099,1394.16704,956.504648581556,1356.1298945168576,901.3212237957976
1533054425.3720002,1306.6668131392155,1386.8765866666668,956.504648581556,1359.5635026374273,1029.67666561195
1533054425.3760002,1307.3101205730636,1385.4190933333334,956.504648581556,1351.5525316093679,978.3356571869665
1533054425.379,1307.9534280069115,1388.33408,966.2932365823676,1340.1079524607385,690.2558788860802
1533054425.383,1307.3101205730636,1389.79456,967.2736994116173,1337.8204428868983,473.47753975180547
1533054425.387,1295.723995499108,1386.8765866666668,959.4400219599231,1325.2297651915396,638.9148704610966
1533054425.391,1292.5061400769296,1388.33408,961.3989425819618,1319.5086474971297,1098.1332906810571
1533054425.395,1286.7124184134827,1381.0436266666666,965.3147787895786,1316.07503937656,841.4282485561394
1533054425.399,1281.563322436822,1382.50112,960.4204847891727,1305.77655877466,644.6161816708798
1533054425.4029999,1284.1378704251524,1392.7095466666667,956.504648581556,1304.6304602279306,1220.7815797800395
1533054425.407,1286.7124184134827,1394.16704,963.3578632040005,1309.2101668952298,1366.2467967329283
1533054425.411,1282.2066298706702,1388.33408,960.4204847891727,1300.0530973204409,969.7778488649047
1533054425.415,1272.5517453511968,1386.8765866666668,957.4831063743451,1305.77655877466,681.6980705640184
1533054425.419,1267.4026493745362,1373.7501866666667,963.3578632040005,1302.3429506540904,544.7848204258041
1533054425.4220002,1265.471408820054,1369.3777066666667,967.2736994116173,1310.3539216821498,849.980215370814
1533054425.426,1261.6089277110893,1367.9172266666667,971.189535619234,1318.3648927102095,1309.2044770981618
1533054425.43,1259.034379722759,1365.00224,967.2736994116173,1300.0530973204409,1078.1670184320421
1533054425.434,1257.7464466021247,1370.8352,967.2736994116173,1309.2101668952298,858.5380236928758
1533054425.438,1260.9656202772414,1367.9172266666667,974.1269140340618,1326.375863738269,887.0621042639527
1533054425.4420002,1264.1834756994197,1359.16928,972.1679934120231,1338.9641976738185,1177.9983796771176
1533054425.446,1260.3223128433933,1362.0842666666667,966.2932365823676,1337.8204428868983,1149.4742991060407
1533054425.45,1271.2638122305627,1366.4597333333334,962.3774003747509,1334.3868347663285,521.9678925718974
1533054425.454,1272.5517453511968,1369.3777066666667,965.3147787895786,1341.2517072476587,644.6161816708798
1533054425.458,1273.8396784718311,1378.1256533333333,965.3147787895786,1338.9641976738185,969.7778488649047
1533054425.4620001,1284.7811778590005,1385.4190933333334,966.2932365823676,1338.9641976738185,1061.0514017879186
1533054425.465,1292.5061400769296,1397.0850133333333,968.2521572044063,1352.6962863962879,912.735529230138
1533054425.4689999,1305.3788800185812,1397.0850133333333,967.2736994116173,1357.2736493037778,909.8790321178593
1533054425.4729998,1306.6668131392155,1398.5425066666667,960.4204847891727,1352.6962863962879,964.0765376551216
1533054425.4770002,1298.2985434874383,1400.0,967.2736994116173,1351.5525316093679,984.0428099041367
1533054425.481,1300.2297840419205,1402.9179733333333,972.1679934120231,1364.1408655449172,966.9271932600132
1533054425.485,1306.6668131392155,1401.46048,969.2306149971953,1360.7072574243475,875.6536403369994
1533054425.4889998,1308.598053693698,1398.5425066666667,964.3363209967896,1343.5415605813082,898.4705681909061
1533054425.4929998,1302.161024596403,1401.46048,960.4204847891727,1336.6743443401688,992.5947767188114
1533054425.4970002,1300.8730914757687,1404.3754666666666,963.3578632040005,1341.2517072476587,784.3800874139855
1533054425.5010002,1304.7355725847333,1408.7509333333333,969.2306149971953,1349.2626782757181,755.8560068429086
1533054425.504,1302.161024596403,1413.1264,965.3147787895786,1338.9641976738185,704.5149984179251
1533054425.508,1294.4360623784737,1397.0850133333333,962.3774003747509,1326.375863738269,362.23771457977654
1533054425.512,1289.286966401813,1391.2520533333334,968.2521572044063,1330.9532266457588,867.0958320149375
1533054425.516,1279.63208188234,1395.62752,968.2521572044063,1324.0860104046194,898.4705681909061
1533054425.52,1268.0459568083843,1388.33408,967.2736994116173,1312.6414312559903,638.9148704610966
1533054425.524,1265.471408820054,1386.8765866666668,970.2090727899844,1313.7875298027195,1172.2912269599474
1533054425.5279999,1260.9656202772414,1388.33408,973.1464512048121,1305.77655877466,1026.8260100070586
1533054425.532,1257.1031391682768,1385.4190933333334,969.2306149971953,1288.6108619316208,613.2414454949113
1533054425.536,1255.8165243005808,1373.7501866666667,967.2736994116173,1286.3210085979713,653.1739899929415
1533054425.54,1251.9540431916162,1366.4597333333334,965.3147787895786,1287.4647633848915,530.5257008939593
1533054425.544,1252.597350625464,1375.2106666666666,963.3578632040005,1295.475734412951,624.6499094218647
1533054425.5470002,1257.7464466021247,1381.0436266666666,974.1269140340618,1293.1882248391107,812.9041679850625
1533054425.551,1265.471408820054,1376.66816,973.1464512048121,1292.0421262923812,698.8078457007549
1533054425.555,1270.6205047967146,1376.66816,966.2932365823676,1305.77655877466,1086.7248267541038
1533054425.559,1269.9771973628665,1383.9586133333332,970.2090727899844,1308.0640683485003,1166.5899157501642
1533054425.563,1274.4829859056792,1385.4190933333334,975.1053718268507,1317.2211379232892,1158.0321074281026
1533054425.5670002,1282.2066298706702,1382.50112,980.9801286565062,1336.6743443401688,1260.7141242780697
1533054425.571,1288.000351534117,1383.9586133333332,975.1053718268507,1352.6962863962879,787.2307430188771
1533054425.575,1291.8615143901434,1385.4190933333334,971.189535619234,1368.718228452407,433.54499525377526
1533054425.579,1298.2985434874383,1386.8765866666668,976.0838296196398,1367.574473665487,955.5187293330598
1533054425.583,1303.447639464099,1383.9586133333332,972.1679934120231,1361.8533559710768,1086.7248267541038
1533054425.5870001,1304.7355725847333,1389.79456,968.2521572044063,1359.5635026374273,753.005351238017
1533054425.59,1311.1726016820282,1404.3754666666666,960.4204847891727,1358.4197478505073,684.54872616891
1533054425.5939999,1310.5292942481801,1404.3754666666666,956.504648581556,1371.0080817860567,424.9871869317135
1533054425.5979998,1305.3788800185812,1401.46048,960.4204847891727,1360.7072574243475,616.0921010998029
1533054425.6020002,1309.884668561394,1405.8359466666666,959.4400219599231,1358.4197478505073,695.9571900958633
1533054425.606,1311.8159091158761,1391.2520533333334,958.4615641671342,1358.4197478505073,410.72806739986856
1533054425.61,1307.9534280069115,1385.4190933333334,956.504648581556,1332.096981432679,704.5149984179251
1533054425.6139998,1300.8730914757687,1389.79456,957.4831063743451,1319.5086474971297,678.8474149591268
1533054425.6179998,1293.7927549446258,1383.9586133333332,960.4204847891727,1320.6524022840497,790.0813986237687
1533054425.6220002,1290.5748995224474,1381.0436266666666,961.3989425819618,1316.07503937656,1055.3500905781355
1533054425.6260002,1290.5748995224474,1379.5861333333332,962.3774003747509,1314.9312845896397,892.7692569811229
1533054425.629,1291.8615143901434,1383.9586133333332,965.3147787895786,1319.5086474971297,838.5717514438606
1533054425.633,1288.6436589679652,1386.8765866666668,966.2932365823676,1310.3539216821498,1058.200746183027
1533054425.637,1280.2753893161878,1391.2520533333334,968.2521572044063,1309.2101668952298,981.1863127918581
1533054425.641,1271.2638122305627,1382.50112,973.1464512048121,1309.2101668952298,944.1102654061065
1533054425.645,1271.2638122305627,1370.8352,973.1464512048121,1289.754616718541,918.4368404399212
1533054425.649,1273.195052785045,1373.7501866666667,967.2736994116173,1286.3210085979713,627.5005650267561
1533054425.6529999,1266.75802368775,1378.1256533333333,961.3989425819618,1295.475734412951,536.2270121037424
1533054425.657,1267.4026493745362,1376.66816,964.3363209967896,1297.7655877466004,995.45127383109
1533054425.661,1271.908437917349,1382.50112,967.2736994116173,1295.475734412951,1092.426137963887
1533054425.665,1274.4829859056792,1386.8765866666668,974.1269140340618,1304.6304602279306,579.0160537140513
1533054425.669,1279.63208188234,1382.50112,981.9585864492952,1322.9422556176994,390.76179515085346
1533054425.6720002,1280.2753893161878,1378.1256533333333,982.9370442420843,1335.5305895532488,966.9271932600132
1533054425.676,1277.0575338940096,1376.66816,979.9996658272565,1345.8314139149577,872.8029847321078
1533054425.68,1280.2753893161878,1363.54176,979.0212080344676,1344.6853153682284,664.5824539198949
1533054425.684,1287.3557258473309,1365.00224,977.0622874124289,1353.8423849430174,995.45127383109
1533054425.688,1295.723995499108,1375.2106666666666,970.2090727899844,1360.7072574243475,792.9378957360473
1533054425.6920002,1294.4360623784737,1372.2926933333333,970.2090727899844,1351.5525316093679,738.7403901987851
1533054425.696,1293.7927549446258,1373.7501866666667,979.0212080344676,1359.5635026374273,921.2874960448127
1533054425.7,1301.5177171625548,1382.50112,976.0838296196398,1368.718228452407,792.9378957360473
1533054425.704,1307.9534280069115,1389.79456,972.1679934120231,1358.4197478505073,661.7317983150033
1533054425.708,1308.598053693698,1389.79456,972.1679934120231,1342.397805794388,770.1151263747536
1533054425.711,1310.5292942481801,1402.9179733333333,971.189535619234,1348.1189234887981,1046.7922822560736
1533054425.715,1310.5292942481801,1400.0,979.9996658272565,1358.4197478505073,1052.4935934658567
1533054425.7189999,1300.2297840419205,1381.0436266666666,978.0427502416785,1351.5525316093679,832.8704402340776
1533054425.7229998,1295.723995499108,1385.4190933333334,973.1464512048121,1344.6853153682284,918.4368404399212
1533054425.7270002,1296.3673029329561,1392.7095466666667,976.0838296196398,1335.5305895532488,861.3945208051545
1533054425.731,1295.723995499108,1382.50112,974.1269140340618,1333.240736219599,1004.0090821531518
1533054425.735,1289.9315920885992,1378.1256533333333,974.1269140340618,1325.2297651915396,1001.1525850408732
1533054425.7389998,1274.4829859056792,1379.5861333333332,972.1679934120231,1305.77655877466,718.77411794977
1533054425.7429998,1270.6205047967146,1372.2926933333333,972.1679934120231,1303.4867054410106,835.7210958389691
1533054425.7470002,1276.4142264601614,1366.4597333333334,978.0427502416785,1308.0640683485003,847.1295597659224
1533054425.7510002,1275.7696007733753,1363.54176,974.1269140340618,1317.2211379232892,1169.440571355056
1533054425.754,1278.3441487617056,1366.4597333333334,970.2090727899844,1309.2101668952298,1283.5310521319764
1533054425.758,1272.5517453511968,1367.9172266666667,979.9996658272565,1298.9093425335207,790.0813986237687
1533054425.762,1262.8968608317236,1367.9172266666667,980.9801286565062,1294.3319796260307,721.6306150620486
1533054425.766,1264.1834756994197,1372.2926933333333,972.1679934120231,1292.0421262923812,935.5524570840447
1533054425.77,1273.195052785045,1379.5861333333332,971.189535619234,1313.7875298027195,735.8897345938935
1533054425.774,1275.7696007733753,1379.5861333333332,979.0212080344676,1330.9532266457588,810.0476708727838
1533054425.7779999,1271.908437917349,1382.50112,980.9801286565062,1320.6524022840497,955.5187293330598
1533054425.782,1280.2753893161878,1392.7095466666667,981.9585864492952,1336.6743443401688,815.754823589954
1533054425.786,1287.3557258473309,1385.4190933333334,984.895964864123,1353.8423849430174,1320.612941025115
1533054425.79,1289.9315920885992,1378.1256533333333,979.9996658272565,1350.4087768224476,1049.6429378609653
1533054425.794,1289.9315920885992,1379.5861333333332,976.0838296196398,1362.997110757997,667.4331095247865
1533054425.7970002,1294.4360623784737,1382.50112,978.0427502416785,1366.4307188785667,955.5187293330598
1533054425.801,1307.3101205730636,1386.8765866666668,979.9996658272565,1362.997110757997,772.9716234870322
1533054425.805,1312.4592165497243,1389.79456,979.9996658272565,1366.4307188785667,881.3549515467824
1533054425.809,1313.7471496703586,1391.2520533333334,973.1464512048121,1358.4197478505073,984.0428099041367
1533054425.813,1312.4592165497243,1382.50112,973.1464512048121,1358.4197478505073,1006.8597377580434
1533054425.8170002,1313.7471496703586,1379.5861333333332,979.9996658272565,1362.997110757997,781.5294318090939
1533054425.821,1320.1841787676533,1382.50112,977.0622874124289,1360.7072574243475,656.0246455978331
1533054425.825,1320.1841787676533,1383.9586133333332,974.1269140340618,1352.6962863962879,926.994648761983
1533054425.829,1311.8159091158761,1379.5861333333332,976.0838296196398,1343.5415605813082,838.5717514438606
1533054425.833,1310.5292942481801,1378.1256533333333,973.1464512048121,1341.2517072476587,801.4957040581091
1533054425.836,1304.7355725847333,1381.0436266666666,975.1053718268507,1334.3868347663285,810.0476708727838
1533054425.84,1298.9418509212865,1379.5861333333332,982.9370442420843,1332.096981432679,1209.3731158530861
1533054425.8439999,1302.161024596403,1382.50112,978.0427502416785,1338.9641976738185,1152.3249547109324
1533054425.8479998,1302.8043320302509,1392.7095466666667,981.9585864492952,1335.5305895532488,807.1970152678922
1533054425.8520002,1293.1494475107777,1386.8765866666668,982.9370442420843,1329.8094718588386,690.2558788860802
1533054425.856,1285.4258035457867,1381.0436266666666,981.9585864492952,1316.07503937656,513.4100842498357
1533054425.86,1285.4258035457867,1378.1256533333333,988.8118010717398,1304.6304602279306,633.2077177439264
1533054425.8639998,1278.9887744484918,1375.2106666666666,986.852880449701,1308.0640683485003,701.6643428130335
1533054425.8679998,1280.2753893161878,1382.50112,980.9801286565062,1319.5086474971297,413.57872300476015
1533054425.8720002,1279.63208188234,1375.2106666666666,981.9585864492952,1317.2211379232892,427.84368404399214
1533054425.8760002,1268.6892642422324,1370.8352,981.9585864492952,1301.1991958671701,924.1439931570914
1533054425.879,1269.9771973628665,1375.2106666666666,983.9155020348733,1313.7875298027195,949.8115766158896
1533054425.883,1282.2066298706702,1382.50112,984.895964864123,1337.8204428868983,627.5005650267561
1533054425.887,1289.9315920885992,1378.1256533333333,985.874422656912,1350.4087768224476,345.1279394430401
1533054425.891,1290.5748995224474,1376.66816,985.874422656912,1352.6962863962879,653.1739899929415
1533054425.895,1295.723995499108,1383.9586133333332,978.0427502416785,1345.8314139149577,750.1546956331255
1533054425.899,1295.723995499108,1391.2520533333334,984.895964864123,1344.6853153682284,675.9909178468482
1533054425.9029999,1295.08068806526,1391.2520533333334,992.7276372793565,1356.1298945168576,952.6622322207811
1533054425.907,1298.2985434874383,1382.50112,983.9155020348733,1365.2846203318372,638.9148704610966
1533054425.911,1298.2985434874383,1373.7501866666667,976.0838296196398,1350.4087768224476,727.3319262718318
1533054425.915,1310.5292942481801,1370.8352,975.1053718268507,1349.2626782757181,955.5187293330598
1533054425.919,1317.609630779323,1369.3777066666667,978.0427502416785,1354.9861397299376,852.8367124830927
1533054425.9220002,1306.6668131392155,1378.1256533333333,978.0427502416785,1360.7072574243475,1206.5224602481944
1533054425.926,1299.5864766080726,1388.33408,979.0212080344676,1366.4307188785667,1172.2912269599474
1533054425.93,1304.0922651508852,1381.0436266666666,973.1464512048121,1357.2736493037778,775.8222790919237
1533054425.934,1309.884668561394,1381.0436266666666,967.2736994116173,1352.6962863962879,516.2607398547273
1533054425.938,1307.9534280069115,1383.9586133333332,973.1464512048121,1348.1189234887981,593.2751732458962
1533054425.9420002,1302.161024596403,1383.9586133333332,976.0838296196398,1341.2517072476587,1023.9753544021669
1533054425.946,1298.2985434874383,1389.79456,973.1464512048121,1340.1079524607385,907.0283765129678
1533054425.95,1297.0119286197423,1381.0436266666666,979.0212080344676,1337.8204428868983,772.9716234870322
1533054425.954,1296.3673029329561,1375.2106666666666,983.9155020348733,1341.2517072476587,827.1632875169073
1533054425.958,1297.6552360535902,1372.2926933333333,981.9585864492952,1344.6853153682284,584.7173649238343
1533054425.961,1297.6552360535902,1370.8352,982.9370442420843,1340.1079524607385,887.0621042639527
1533054425.965,1290.5748995224474,1369.3777066666667,982.9370442420843,1333.240736219599,1081.0176740369336
1533054425.9689999,1288.6436589679652,1369.3777066666667,978.0427502416785,1321.7985008307792,1166.5899157501642
1533054425.9729998,1288.6436589679652,1357.7088,969.2306149971953,1310.3539216821498,946.960921010998
1533054425.9770002,1288.000351534117,1353.3333333333333,971.189535619234,1306.92031356158,598.9823259630664
1533054425.981,1295.723995499108,1367.9172266666667,972.1679934120231,1314.9312845896397,747.2981985208469
1533054425.985,1296.3673029329561,1378.1256533333333,968.2521572044063,1306.92031356158,807.1970152678922
1533054425.9889998,1295.08068806526,1392.7095466666667,962.3774003747509,1286.3210085979713,889.9127598688442
1533054425.9929998,1298.2985434874383,1395.62752,953.5672701667283,1286.3210085979713,972.6285044697963
1533054425.9970002,1295.08068806526,1394.16704,952.5868073374787,1300.0530973204409,969.7778488649047
1533054426.0010002,1292.5061400769296,1391.2520533333334,954.5457279595173,1309.2101668952298,1143.7671463888705
1533054426.004,1289.286966401813,1383.9586133333332,955.5241857523064,1311.49767646907,869.9464876198291
1533054426.008,1288.000351534117,1379.5861333333332,964.3363209967896,1326.375863738269,556.1932843527575
1533054426.012,1291.8615143901434,1378.1256533333333,964.3363209967896,1336.6743443401688,858.5380236928758
1533054426.016,1291.8615143901434,1382.50112,958.4615641671342,1332.096981432679,1138.0658351790873
1533054426.02,1287.3557258473309,1382.50112,964.3363209967896,1344.6853153682284,1009.710393362935
1533054426.024,1293.1494475107777,1386.8765866666668,961.3989425819618,1352.6962863962879,502.0016203228824
1533054426.0279999,1297.6552360535902,1386.8765866666668,961.3989425819618,1352.6962863962879,972.6285044697963
1533054426.032,1296.3673029329561,1385.4190933333334,966.2932365823676,1342.397805794388,1186.5561879991794
1533054426.036,1299.5864766080726,1385.4190933333334,961.3989425819618,1334.3868347663285,704.5149984179251
1533054426.04,1299.5864766080726,1379.5861333333332,964.3363209967896,1344.6853153682284,835.7210958389691
1533054426.043,1301.5177171625548,1378.1256533333333,965.3147787895786,1340.1079524607385,1140.916490783979
1533054426.0470002,1300.8730914757687,1378.1256533333333,971.189535619234,1338.9641976738185,912.735529230138
1533054426.051,1300.2297840419205,1379.5861333333332,969.2306149971953,1343.5415605813082,559.0497814650362
1533054426.055,1303.447639464099,1388.33408,965.3147787895786,1329.8094718588386,62.74947235193691
1533054426.059,1295.723995499108,1389.79456,965.3147787895786,1314.9312845896397,85.56640020584359
1533054426.063,1291.8615143901434,1394.16704,956.504648581556,1316.07503937656,559.0497814650362
1533054426.0670002,1294.4360623784737,1391.2520533333334,954.5457279595173,1332.096981432679,510.55942864494415
1533054426.071,1292.5061400769296,1389.79456,955.5241857523064,1333.240736219599,553.3426287478659
1533054426.075,1288.000351534117,1388.33408,953.5672701667283,1309.2101668952298,593.2751732458962
1533054426.079,1286.7124184134827,1379.5861333333332,959.4400219599231,1302.3429506540904,527.6750452890677
1533054426.083,1286.0691109796348,1386.8765866666668,966.2932365823676,1316.07503937656,918.4368404399212
1533054426.086,1288.6436589679652,1394.16704,971.189535619234,1319.5086474971297,1477.4866219049572
1533054426.09,1296.3673029329561,1388.33408,964.3363209967896,1313.7875298027195,1397.6215329088968
1533054426.0939999,1296.3673029329561,1395.62752,955.5241857523064,1311.49767646907,921.2874960448127
1533054426.0979998,1296.3673029329561,1398.5425066666667,959.4400219599231,1316.07503937656,795.7885513409389
1533054426.1020002,1297.6552360535902,1383.9586133333332,969.2306149971953,1327.5196185251891,955.5187293330598
1533054426.106,1299.5864766080726,1376.66816,976.0838296196398,1330.9532266457588,1095.2826350761657
1533054426.11,1297.6552360535902,1379.5861333333332,977.0622874124289,1335.5305895532488,1098.1332906810571
1533054426.1139998,1298.9418509212865,1388.33408,980.9801286565062,1345.8314139149577,847.1295597659224
1533054426.1179998,1302.8043320302509,1391.2520533333334,989.7902588645287,1345.8314139149577,821.4619763071242
1533054426.1220002,1305.3788800185812,1391.2520533333334,987.8333432789507,1344.6853153682284,958.3693849379514
1533054426.1260002,1306.0235057053676,1388.33408,981.9585864492952,1344.6853153682284,984.0428099041367
1533054426.129,1309.2413611275458,1386.8765866666668,978.0427502416785,1345.8314139149577,964.0765376551216
1533054426.133,1307.9534280069115,1386.8765866666668,973.1464512048121,1351.5525316093679,758.7066624478002
1533054426.137,1302.161024596403,1386.8765866666668,978.0427502416785,1350.4087768224476,952.6622322207811
1533054426.141,1304.0922651508852,1395.62752,979.0212080344676,1337.8204428868983,1023.9753544021669
1533054426.145,1314.3904571042065,1400.0,971.189535619234,1332.096981432679,1004.0090821531518
1533054426.149,1318.252938213171,1395.62752,966.2932365823676,1346.975168701878,949.8115766158896
1533054426.1529999,1320.1841787676533,1389.79456,972.1679934120231,1345.8314139149577,1146.6236435011492
1533054426.157,1316.321697658689,1382.50112,976.0838296196398,1340.1079524607385,1226.4887324972096
1533054426.161,1314.3904571042065,1376.66816,972.1679934120231,1338.9641976738185,710.2221511350953
1533054426.165,1314.3904571042065,1376.66816,975.1053718268507,1333.240736219599,735.8897345938935
1533054426.168,1303.447639464099,1385.4190933333334,980.9801286565062,1327.5196185251891,1081.0176740369336
1533054426.1720002,1294.4360623784737,1383.9586133333332,975.1053718268507,1318.3648927102095,798.6392069458304
1533054426.176,1299.5864766080726,1378.1256533333333,968.2521572044063,1314.9312845896397,561.9004370699278
1533054426.18,1302.161024596403,1385.4190933333334,970.2090727899844,1318.3648927102095,984.0428099041367
1533054426.184,1295.08068806526,1383.9586133333332,967.2736994116173,1319.5086474971297,944.1102654061065
1533054426.188,1292.5061400769296,1381.0436266666666,966.2932365823676,1319.5086474971297,864.245176410046
1533054426.1920002,1289.9315920885992,1383.9586133333332,968.2521572044063,1320.6524022840497,1055.3500905781355
1533054426.196,1288.000351534117,1379.5861333333332,970.2090727899844,1318.3648927102095,1203.665963135916
1533054426.2,1286.7124184134827,1382.50112,976.0838296196398,1313.7875298027195,1323.4635966300066
1533054426.204,1293.1494475107777,1385.4190933333334,975.1053718268507,1318.3648927102095,1106.691099003119
1533054426.208,1298.9418509212865,1378.1256533333333,975.1053718268507,1328.6633733121093,755.8560068429086
1533054426.211,1293.7927549446258,1373.7501866666667,978.0427502416785,1345.8314139149577,502.0016203228824
1533054426.215,1290.5748995224474,1376.66816,982.9370442420843,1354.9861397299376,610.3907898900197
1533054426.2189999,1294.4360623784737,1397.0850133333333,985.874422656912,1348.1189234887981,835.7210958389691
1533054426.2229998,1302.8043320302509,1407.29344,980.9801286565062,1359.5635026374273,741.5968873110637
1533054426.2270002,1306.6668131392155,1397.0850133333333,989.7902588645287,1369.8619832393272,775.8222790919237
1533054426.231,1303.447639464099,1394.16704,989.7902588645287,1367.574473665487,656.0246455978331
1533054426.235,1300.2297840419205,1392.7095466666667,973.1464512048121,1357.2736493037778,653.1739899929415
1533054426.2389998,1298.2985434874383,1397.0850133333333,974.1269140340618,1357.2736493037778,1012.5610489678265
1533054426.2429998,1302.8043320302509,1411.6689066666668,980.9801286565062,1367.574473665487,895.6199125860145
1533054426.2470002,1308.598053693698,1416.0443733333334,979.9996658272565,1366.4307188785667,784.3800874139855
1533054426.2510002,1311.8159091158761,1410.2084266666666,974.1269140340618,1356.1298945168576,861.3945208051545
1533054426.254,1317.609630779323,1414.5838933333334,977.0622874124289,1365.2846203318372,875.6536403369994
1533054426.258,1315.0350827909926,1418.95936,979.0212080344676,1373.295591359897,901.3212237957976
1533054426.262,1309.884668561394,1410.2084266666666,979.0212080344676,1352.6962863962879,986.8934655090283
1533054426.266,1315.6783902248408,1411.6689066666668,984.895964864123,1344.6853153682284,718.77411794977
1533054426.27,1317.609630779323,1416.0443733333334,986.852880449701,1350.4087768224476,653.1739899929415
1533054426.274,1304.7355725847333,1410.2084266666666,983.9155020348733,1336.6743443401688,1120.9502185349638
1533054426.2779999,1301.5177171625548,1411.6689066666668,984.895964864123,1332.096981432679,1118.0995629300724
1533054426.282,1306.0235057053676,1408.7509333333333,983.9155020348733,1340.1079524607385,935.5524570840447
1533054426.286,1295.08068806526,1402.9179733333333,981.9585864492952,1335.5305895532488,889.9127598688442
1533054426.29,1287.3557258473309,1401.46048,982.9370442420843,1327.5196185251891,861.3945208051545
1533054426.293,1293.1494475107777,1402.9179733333333,983.9155020348733,1329.8094718588386,935.5524570840447
1533054426.2970002,1295.723995499108,1398.5425066666667,985.874422656912,1335.5305895532488,975.4850015820749
1533054426.301,1292.5061400769296,1392.7095466666667,982.9370442420843,1325.2297651915396,778.6729346968153
1533054426.305,1290.5748995224474,1391.2520533333334,981.9585864492952,1314.9312845896397,958.3693849379514
1533054426.309,1300.2297840419205,1388.33408,984.895964864123,1326.375863738269,944.1102654061065
1533054426.313,1305.3788800185812,1391.2520533333334,983.9155020348733,1329.8094718588386,576.1595566017726
1533054426.3170002,1298.9418509212865,1392.7095466666667,984.895964864123,1327.5196185251891,701.6643428130335
1533054426.321,1296.3673029329561,1385.4190933333334,983.9155020348733,1336.6743443401688,929.8453043668745
1533054426.325,1295.08068806526,1385.4190933333334,981.9585864492952,1356.1298945168576,1172.2912269599474
1533054426.329,1293.7927549446258,1392.7095466666667,980.9801286565062,1353.8423849430174,884.2114486590611
1533054426.333,1297.0119286197423,1395.62752,975.1053718268507,1343.5415605813082,812.9041679850625
1533054426.336,1293.7927549446258,1391.2520533333334,969.2306149971953,1358.4197478505073,918.4368404399212
1533054426.34,1296.3673029329561,1392.7095466666667,965.3147787895786,1362.997110757997,841.4282485561394
1533054426.3439999,1306.6668131392155,1397.0850133333333,971.189535619234,1360.7072574243475,430.69433964888367
1533054426.3479998,1300.8730914757687,1398.5425066666667,975.1053718268507,1360.7072574243475,219.62315323177918
1533054426.3520002,1297.0119286197423,1404.3754666666666,972.1679934120231,1351.5525316093679,376.5026756190085
1533054426.356,1300.8730914757687,1398.5425066666667,976.0838296196398,1348.1189234887981,544.7848204258041
1533054426.36,1297.6552360535902,1389.79456,974.1269140340618,1344.6853153682284,550.4919731429744
1533054426.3639998,1300.2297840419205,1394.16704,970.2090727899844,1340.1079524607385,544.7848204258041
1533054426.3679998,1304.0922651508852,1397.0850133333333,969.2306149971953,1346.975168701878,1109.5417546080105
1533054426.3720002,1298.9418509212865,1397.0850133333333,970.2090727899844,1356.1298945168576,1314.9057883079447
1533054426.375,1298.2985434874383,1395.62752,967.2736994116173,1353.8423849430174,858.5380236928758
1533054426.379,1297.6552360535902,1397.0850133333333,963.3578632040005,1341.2517072476587,664.5824539198949
1533054426.383,1293.7927549446258,1395.62752,966.2932365823676,1327.5196185251891,604.6836371728496
1533054426.387,1297.6552360535902,1394.16704,965.3147787895786,1327.5196185251891,738.7403901987851
1533054426.391,1293.1494475107777,1392.7095466666667,964.3363209967896,1335.5305895532488,513.4100842498357
1533054426.395,1283.4945629913045,1385.4190933333334,964.3363209967896,1325.2297651915396,362.23771457977654
1533054426.399,1277.7008413278575,1391.2520533333334,968.2521572044063,1314.9312845896397,370.79552290183835
1533054426.4029999,1277.0575338940096,1400.0,975.1053718268507,1310.3539216821498,715.9234623448784
1533054426.407,1282.2066298706702,1401.46048,976.0838296196398,1301.1991958671701,1346.2805244839133
1533054426.411,1281.563322436822,1391.2520533333334,970.2090727899844,1296.6194891998712,1326.314252234898
1533054426.415,1278.9887744484918,1388.33408,963.3578632040005,1300.0530973204409,1038.234473934012
1533054426.418,1275.1262933395271,1386.8765866666668,958.4615641671342,1296.6194891998712,884.2114486590611
1533054426.4220002,1271.908437917349,1375.2106666666666,957.4831063743451,1282.8874004774016,1035.3838183291202
1533054426.426,1280.2753893161878,1381.0436266666666,971.189535619234,1292.0421262923812,1209.3731158530861
1533054426.43,1285.4258035457867,1389.79456,977.0622874124289,1312.6414312559903,986.8934655090283
1533054426.434,1284.7811778590005,1395.62752,969.2306149971953,1319.5086474971297,747.2981985208469
1533054426.438,1283.4945629913045,1389.79456,967.2736994116173,1325.2297651915396,502.0016203228824
1533054426.4420002,1284.7811778590005,1386.8765866666668,969.2306149971953,1342.397805794388,544.7848204258041
1533054426.446,1288.6436589679652,1386.8765866666668,964.3363209967896,1350.4087768224476,633.2077177439264
1533054426.45,1288.000351534117,1385.4190933333334,961.3989425819618,1353.8423849430174,790.0813986237687
1533054426.454,1289.9315920885992,1397.0850133333333,957.4831063743451,1354.9861397299376,821.4619763071242
1533054426.458,1292.5061400769296,1398.5425066666667,957.4831063743451,1350.4087768224476,376.5026756190085
1533054426.461,1295.08068806526,1395.62752,964.3363209967896,1362.997110757997,365.0942116920552
1533054426.465,1293.1494475107777,1395.62752,966.2932365823676,1368.718228452407,750.1546956331255
1533054426.4689999,1295.723995499108,1401.46048,963.3578632040005,1358.4197478505073,764.4138151649704
1533054426.4729998,1296.3673029329561,1407.29344,957.4831063743451,1346.975168701878,750.1546956331255
1533054426.4770002,1286.0691109796348,1395.62752,959.4400219599231,1342.397805794388,830.0139431217989
1533054426.481,1285.4258035457867,1392.7095466666667,965.3147787895786,1340.1079524607385,1098.1332906810571
1533054426.485,1291.2182069562955,1400.0,963.3578632040005,1342.397805794388,1255.0069715608995
1533054426.4889998,1291.8615143901434,1400.0,970.2090727899844,1346.975168701878,815.754823589954
1533054426.4929998,1293.7927549446258,1404.3754666666666,978.0427502416785,1345.8314139149577,715.9234623448784
1533054426.4970002,1297.0119286197423,1413.1264,979.0212080344676,1338.9641976738185,1140.916490783979
1533054426.5,1293.1494475107777,1408.7509333333333,977.0622874124289,1333.240736219599,935.5524570840447
1533054426.504,1293.1494475107777,1401.46048,976.0838296196398,1343.5415605813082,576.1595566017726
1533054426.508,1297.6552360535902,1411.6689066666668,977.0622874124289,1343.5415605813082,1006.8597377580434
1533054426.512,1297.6552360535902,1420.4168533333334,970.2090727899844,1326.375863738269,958.3693849379514
1533054426.516,1298.2985434874383,1421.8773333333334,969.2306149971953,1327.5196185251891,664.5824539198949
1533054426.52,1302.161024596403,1417.5018666666667,970.2090727899844,1330.9532266457588,1026.8260100070586
1533054426.524,1304.0922651508852,1416.0443733333334,972.1679934120231,1329.8094718588386,1018.2682016849967
1533054426.5279999,1298.2985434874383,1414.5838933333334,979.9996658272565,1334.3868347663285,741.5968873110637
1533054426.532,1302.8043320302509,1404.3754666666666,974.1269140340618,1337.8204428868983,701.6643428130335
1533054426.536,1302.8043320302509,1407.29344,971.189535619234,1342.397805794388,832.8704402340776
1533054426.54,1297.0119286197423,1408.7509333333333,973.1464512048121,1340.1079524607385,852.8367124830927
1533054426.543,1304.0922651508852,1402.9179733333333,972.1679934120231,1342.397805794388,707.3656540228167
1533054426.5470002,1307.9534280069115,1395.62752,976.0838296196398,1358.4197478505073,830.0139431217989
1533054426.551,1307.3101205730636,1388.33408,975.1053718268507,1375.5854446935464,892.7692569811229
1533054426.555,1296.3673029329561,1386.8765866666668,976.0838296196398,1374.4416899066264,946.960921010998
1533054426.559,1289.9315920885992,1378.1256533333333,982.9370442420843,1382.4526609346858,1026.8260100070586
1533054426.563,1297.0119286197423,1381.0436266666666,985.874422656912,1385.8839252954463,781.5294318090939
1533054426.5670002,1303.447639464099,1392.7095466666667,985.874422656912,1368.718228452407,593.2751732458962
1533054426.571,1302.161024596403,1405.8359466666666,979.9996658272565,1369.8619832393272,815.754823589954
1533054426.575,1295.723995499108,1404.3754666666666,976.0838296196398,1364.1408655449172,1004.0090821531518
1533054426.579,1298.9418509212865,1397.0850133333333,977.0622874124289,1359.5635026374273,855.6873680879843
1533054426.583,1308.598053693698,1398.5425066666667,980.9801286565062,1353.8423849430174,1038.234473934012
1533054426.586,1311.8159091158761,1401.46048,978.0427502416785,1349.2626782757181,861.3945208051545
1533054426.59,1311.1726016820282,1402.9179733333333,969.2306149971953,1344.6853153682284,590.4245176410046
1533054426.5939999,1306.0235057053676,1395.62752,970.2090727899844,1336.6743443401688,730.1884233841104
1533054426.5979998,1298.2985434874383,1383.9586133333332,976.0838296196398,1334.3868347663285,835.7210958389691
1533054426.6020002,1304.0922651508852,1386.8765866666668,975.1053718268507,1336.6743443401688,1043.941626651182
1533054426.606,1308.598053693698,1394.16704,975.1053718268507,1336.6743443401688,1106.691099003119
1533054426.61,1305.3788800185812,1402.9179733333333,977.0622874124289,1338.9641976738185,1055.3500905781355
1533054426.6139998,1300.2297840419205,1401.46048,977.0622874124289,1338.9641976738185,824.3126319120157
1533054426.6179998,1300.8730914757687,1394.16704,978.0427502416785,1340.1079524607385,704.5149984179251
1533054426.6220002,1304.0922651508852,1389.79456,979.0212080344676,1346.975168701878,610.3907898900197
1533054426.625,1301.5177171625548,1386.8765866666668,979.9996658272565,1346.975168701878,467.77622854202235
1533054426.629,1300.2297840419205,1395.62752,975.1053718268507,1340.1079524607385,938.4031126889363
1533054426.633,1293.7927549446258,1385.4190933333334,976.0838296196398,1328.6633733121093,1055.3500905781355
1533054426.637,1293.1494475107777,1379.5861333333332,981.9585864492952,1325.2297651915396,593.2751732458962
1533054426.641,1295.08068806526,1383.9586133333332,979.9996658272565,1328.6633733121093,502.0016203228824
1533054426.645,1292.5061400769296,1381.0436266666666,979.9996658272565,1332.096981432679,499.1509647179908
1533054426.649,1294.4360623784737,1385.4190933333334,978.0427502416785,1334.3868347663285,502.0016203228824
1533054426.6529999,1296.3673029329561,1386.8765866666668,974.1269140340618,1336.6743443401688,499.1509647179908
1533054426.657,1288.6436589679652,1379.5861333333332,979.0212080344676,1338.9641976738185,810.0476708727838
1533054426.661,1294.4360623784737,1386.8765866666668,980.9801286565062,1351.5525316093679,952.6622322207811
1533054426.665,1294.4360623784737,1389.79456,983.9155020348733,1362.997110757997,770.1151263747536
1533054426.668,1289.9315920885992,1389.79456,987.8333432789507,1364.1408655449172,938.4031126889363
1533054426.6720002,1294.4360623784737,1398.5425066666667,982.9370442420843,1362.997110757997,844.2789041610309
1533054426.676,1292.5061400769296,1398.5425066666667,979.9996658272565,1368.718228452407,1066.7585545050888
1533054426.68,1297.6552360535902,1398.5425066666667,983.9155020348733,1371.0080817860567,1175.141882564839
1533054426.684,1295.723995499108,1394.16704,986.852880449701,1371.0080817860567,929.8453043668745
1533054426.688,1289.9315920885992,1394.16704,984.895964864123,1367.574473665487,961.220040542843
1533054426.6920002,1296.3673029329561,1404.3754666666666,980.9801286565062,1366.4307188785667,1183.6996908869007
1533054426.696,1299.5864766080726,1397.0850133333333,979.9996658272565,1359.5635026374273,1143.7671463888705
1533054426.7,1299.5864766080726,1398.5425066666667,983.9155020348733,1357.2736493037778,998.3019294359816
1533054426.704,1303.447639464099,1408.7509333333333,986.852880449701,1354.9861397299376,730.1884233841104
1533054426.708,1308.598053693698,1408.7509333333333,976.0838296196398,1320.6524022840497,707.3656540228167
1533054426.711,1313.1038422365104,1408.7509333333333,967.2736994116173,1316.07503937656,778.6729346968153
1533054426.715,1315.6783902248408,1407.29344,974.1269140340618,1336.6743443401688,636.058373348818
1533054426.7189999,1316.321697658689,1408.7509333333333,976.0838296196398,1332.096981432679,807.1970152678922
1533054426.7229998,1315.6783902248408,1413.1264,971.189535619234,1319.5086474971297,969.7778488649047
1533054426.7270002,1313.7471496703586,1410.2084266666666,979.9996658272565,1319.5086474971297,1075.3163628271504
1533054426.731,1307.3101205730636,1413.1264,979.9996658272565,1320.6524022840497,852.8367124830927
1533054426.735,1302.161024596403,1411.6689066666668,969.2306149971953,1319.5086474971297,824.3126319120157
1533054426.7389998,1304.7355725847333,1404.3754666666666,968.2521572044063,1329.8094718588386,981.1863127918581
1533054426.7429998,1305.3788800185812,1405.8359466666666,970.2090727899844,1326.375863738269,904.1777209080763
1533054426.7470002,1307.9534280069115,1405.8359466666666,973.1464512048121,1322.9422556176994,784.3800874139855
1533054426.75,1304.0922651508852,1407.29344,979.0212080344676,1341.2517072476587,656.0246455978331
1533054426.754,1297.6552360535902,1407.29344,984.895964864123,1350.4087768224476,604.6836371728496
1533054426.758,1295.723995499108,1410.2084266666666,975.1053718268507,1341.2517072476587,678.8474149591268
1533054426.762,1293.7927549446258,1411.6689066666668,966.2932365823676,1337.8204428868983,772.9716234870322
1533054426.766,1293.7927549446258,1410.2084266666666,971.189535619234,1350.4087768224476,1063.90205739281
1533054426.77,1295.08068806526,1411.6689066666668,971.189535619234,1359.5635026374273,986.8934655090283
1533054426.774,1290.5748995224474,1414.5838933333334,965.3147787895786,1352.6962863962879,684.54872616891
1533054426.7779999,1287.3557258473309,1413.1264,963.3578632040005,1338.9641976738185,952.6622322207811
1533054426.782,1290.5748995224474,1410.2084266666666,971.189535619234,1341.2517072476587,924.1439931570914
1533054426.786,1292.5061400769296,1410.2084266666666,979.9996658272565,1350.4087768224476,1069.6092101099803
1533054426.79,1289.286966401813,1410.2084266666666,984.895964864123,1364.1408655449172,1066.7585545050888
1533054426.793,1282.849937304518,1407.29344,979.0212080344676,1350.4087768224476,824.3126319120157
1533054426.7970002,1281.563322436822,1407.29344,978.0427502416785,1337.8204428868983,741.5968873110637
1533054426.801,1282.2066298706702,1414.5838933333334,984.895964864123,1336.6743443401688,753.005351238017
1533054426.805,1284.1378704251524,1411.6689066666668,980.9801286565062,1330.9532266457588,681.6980705640184
1533054426.809,1283.4945629913045,1405.8359466666666,978.0427502416785,1348.1189234887981,527.6750452890677
1533054426.813,1289.286966401813,1404.3754666666666,981.9585864492952,1352.6962863962879,815.754823589954
1533054426.8170002,1289.9315920885992,1404.3754666666666,976.0838296196398,1334.3868347663285,1072.4598657148717
1533054426.821,1287.3557258473309,1405.8359466666666,971.189535619234,1327.5196185251891,787.2307430188771
1533054426.825,1288.6436589679652,1402.9179733333333,971.189535619234,1325.2297651915396,690.2558788860802
1533054426.829,1292.5061400769296,1401.46048,973.1464512048121,1330.9532266457588,710.2221511350953
1533054426.832,1295.723995499108,1408.7509333333333,977.0622874124289,1329.8094718588386,687.3993817738016
1533054426.836,1300.2297840419205,1402.9179733333333,976.0838296196398,1319.5086474971297,915.5861848350296
1533054426.84,1302.8043320302509,1397.0850133333333,981.9585864492952,1321.7985008307792,1089.5754823589955
1533054426.8439999,1302.161024596403,1401.46048,981.9585864492952,1326.375863738269,904.1777209080763
1533054426.8479998,1302.8043320302509,1407.29344,977.0622874124289,1326.375863738269,804.3463596630006
1533054426.8520002,1300.8730914757687,1408.7509333333333,986.852880449701,1321.7985008307792,918.4368404399212
1533054426.856,1299.5864766080726,1407.29344,988.8118010717398,1327.5196185251891,790.0813986237687
1533054426.86,1296.3673029329561,1401.46048,982.9370442420843,1335.5305895532488,881.3549515467824
1533054426.8639998,1297.0119286197423,1386.8765866666668,981.9585864492952,1338.9641976738185,684.54872616891
1533054426.8679998,1293.7927549446258,1381.0436266666666,989.7902588645287,1344.6853153682284,556.1932843527575
1533054426.8720002,1295.08068806526,1391.2520533333334,989.7902588645287,1348.1189234887981,524.818548176789
1533054426.875,1298.2985434874383,1385.4190933333334,989.7902588645287,1353.8423849430174,638.9148704610966
1533054426.879,1297.0119286197423,1375.2106666666666,990.7687166573178,1358.4197478505073,915.5861848350296
1533054426.883,1295.08068806526,1378.1256533333333,982.9370442420843,1359.5635026374273,958.3693849379514
1533054426.887,1288.6436589679652,1379.5861333333332,983.9155020348733,1359.5635026374273,1203.665963135916
1533054426.891,1292.5061400769296,1385.4190933333334,976.0838296196398,1365.2846203318372,1009.710393362935
1533054426.895,1296.3673029329561,1395.62752,972.1679934120231,1360.7072574243475,938.4031126889363
1533054426.899,1294.4360623784737,1392.7095466666667,978.0427502416785,1342.397805794388,847.1295597659224
1533054426.9029999,1302.161024596403,1391.2520533333334,977.0622874124289,1346.975168701878,630.3570621390348
1533054426.907,1306.6668131392155,1392.7095466666667,973.1464512048121,1351.5525316093679,405.02091468269833
1533054426.911,1300.8730914757687,1392.7095466666667,966.2932365823676,1343.5415605813082,653.1739899929415
1533054426.915,1301.5177171625548,1397.0850133333333,964.3363209967896,1340.1079524607385,741.5968873110637
1533054426.918,1302.8043320302509,1391.2520533333334,968.2521572044063,1335.5305895532488,487.74250079103746
1533054426.9220002,1303.447639464099,1385.4190933333334,967.2736994116173,1346.975168701878,1086.7248267541038
1533054426.926,1316.9650050925368,1388.33408,966.2932365823676,1358.4197478505073,1072.4598657148717
1533054426.93,1315.0350827909926,1397.0850133333333,965.3147787895786,1337.8204428868983,884.2114486590611
1533054426.934,1302.161024596403,1395.62752,959.4400219599231,1322.9422556176994,1166.5899157501642
1533054426.938,1303.447639464099,1391.2520533333334,958.4615641671342,1324.0860104046194,984.0428099041367
1533054426.9420002,1302.8043320302509,1394.16704,961.3989425819618,1317.2211379232892,735.8897345938935
1533054426.946,1297.0119286197423,1392.7095466666667,959.4400219599231,1316.07503937656,1129.5080268570257
1533054426.95,1293.7927549446258,1394.16704,952.5868073374787,1310.3539216821498,858.5380236928758
1533054426.954,1287.3557258473309,1391.2520533333334,953.5672701667283,1313.7875298027195,781.5294318090939
1533054426.957,1278.3441487617056,1383.9586133333332,954.5457279595173,1306.92031356158,978.3356571869665
1533054426.961,1275.1262933395271,1370.8352,959.4400219599231,1300.0530973204409,932.7018014791531
1533054426.965,1272.5517453511968,1367.9172266666667,964.3363209967896,1308.0640683485003,821.4619763071242
1533054426.9689999,1267.4026493745362,1372.2926933333333,959.4400219599231,1300.0530973204409,838.5717514438606
1533054426.9729998,1269.9771973628665,1365.00224,956.504648581556,1290.898371505461,855.6873680879843
1533054426.9770002,1269.3338899290186,1357.7088,965.3147787895786,1292.0421262923812,932.7018014791531
1533054426.981,1264.8281013862058,1359.16928,967.2736994116173,1290.898371505461,690.2558788860802
1533054426.985,1269.9771973628665,1362.0842666666667,965.3147787895786,1302.3429506540904,456.367764615069
1533054426.9889998,1272.5517453511968,1357.7088,963.3578632040005,1316.07503937656,784.3800874139855
1533054426.9929998,1271.2638122305627,1353.3333333333333,963.3578632040005,1309.2101668952298,1349.137021596192
1533054426.9970002,1272.5517453511968,1369.3777066666667,967.2736994116173,1308.0640683485003,1158.0321074281026
1533054427.0,1274.4829859056792,1375.2106666666666,964.3363209967896,1313.7875298027195,1015.4175460801051
1533054427.004,1273.195052785045,1363.54176,965.3147787895786,1316.07503937656,932.7018014791531
1533054427.008,1275.1262933395271,1362.0842666666667,968.2521572044063,1327.5196185251891,812.9041679850625
1533054427.012,1284.1378704251524,1375.2106666666666,960.4204847891727,1326.375863738269,989.7441211139198
1533054427.016,1285.4258035457867,1382.50112,957.4831063743451,1324.0860104046194,1075.3163628271504
1533054427.02,1280.2753893161878,1379.5861333333332,959.4400219599231,1324.0860104046194,1283.5310521319764
1533054427.024,1278.9887744484918,1382.50112,954.5457279595173,1318.3648927102095,1289.2382048491465
1533054427.0279999,1283.4945629913045,1388.33408,960.4204847891727,1319.5086474971297,1066.7585545050888
1533054427.032,1289.9315920885992,1386.8765866666668,965.3147787895786,1325.2297651915396,972.6285044697963
1533054427.036,1291.8615143901434,1383.9586133333332,963.3578632040005,1330.9532266457588,975.4850015820749
1533054427.04,1297.0119286197423,1386.8765866666668,964.3363209967896,1325.2297651915396,884.2114486590611
1533054427.043,1294.4360623784737,1386.8765866666668,965.3147787895786,1326.375863738269,832.8704402340776
1533054427.0470002,1288.000351534117,1381.0436266666666,966.2932365823676,1330.9532266457588,838.5717514438606
1533054427.051,1287.3557258473309,1379.5861333333332,966.2932365823676,1313.7875298027195,1163.7334186378857
1533054427.055,1286.0691109796348,1388.33408,963.3578632040005,1306.92031356158,864.245176410046
1533054427.059,1284.7811778590005,1389.79456,967.2736994116173,1318.3648927102095,610.3907898900197
1533054427.063,1285.4258035457867,1383.9586133333332,971.189535619234,1324.0860104046194,867.0958320149375
1533054427.0670002,1289.286966401813,1381.0436266666666,972.1679934120231,1328.6633733121093,581.8667093189429
1533054427.071,1294.4360623784737,1386.8765866666668,967.2736994116173,1330.9532266457588,487.74250079103746
1533054427.075,1291.8615143901434,1385.4190933333334,976.0838296196398,1335.5305895532488,718.77411794977
1533054427.079,1288.000351534117,1385.4190933333334,986.852880449701,1329.8094718588386,935.5524570840447
1533054427.082,1282.2066298706702,1394.16704,984.895964864123,1328.6633733121093,938.4031126889363
1533054427.086,1273.195052785045,1398.5425066666667,985.874422656912,1337.8204428868983,721.6306150620486
1533054427.09,1284.7811778590005,1401.46048,983.9155020348733,1334.3868347663285,647.4668372757714
1533054427.0939999,1284.1378704251524,1395.62752,979.0212080344676,1327.5196185251891,1058.200746183027
1533054427.0979998,1272.5517453511968,1385.4190933333334,979.0212080344676,1328.6633733121093,1006.8597377580434
1533054427.1020002,1267.4026493745362,1375.2106666666666,980.9801286565062,1336.6743443401688,907.0283765129678
1533054427.106,1264.8281013862058,1372.2926933333333,979.0212080344676,1340.1079524607385,1143.7671463888705
1533054427.11,1268.6892642422324,1382.50112,975.1053718268507,1330.9532266457588,946.960921010998
1533054427.1139998,1273.8396784718311,1382.50112,971.189535619234,1324.0860104046194,641.7655260659882
1533054427.1179998,1272.5517453511968,1370.8352,969.2306149971953,1317.2211379232892,618.9485982120815
1533054427.1220002,1272.5517453511968,1375.2106666666666,968.2521572044063,1317.2211379232892,587.5680205287259
1533054427.125,1287.3557258473309,1389.79456,962.3774003747509,1332.096981432679,350.82925065282325
1533054427.129,1298.2985434874383,1388.33408,951.6083495446896,1324.0860104046194,345.1279394430401
1533054427.133,1294.4360623784737,1382.50112,946.7140555442838,1303.4867054410106,379.3533312239001
1533054427.137,1304.7355725847333,1386.8765866666668,952.5868073374787,1296.6194891998712,675.9909178468482
1533054427.141,1317.609630779323,1391.2520533333334,955.5241857523064,1308.0640683485003,989.7441211139198
1533054427.145,1316.9650050925368,1397.0850133333333,956.504648581556,1329.8094718588386,998.3019294359816
1533054427.149,1310.5292942481801,1400.0,963.3578632040005,1343.5415605813082,1106.691099003119
1533054427.1529999,1306.0235057053676,1398.5425066666667,955.5241857523064,1333.240736219599,767.264470769862
1533054427.157,1307.9534280069115,1400.0,958.4615641671342,1327.5196185251891,499.1509647179908
1533054427.161,1306.0235057053676,1404.3754666666666,968.2521572044063,1341.2517072476587,653.1739899929415
1533054427.164,1297.6552360535902,1402.9179733333333,967.2736994116173,1335.5305895532488,610.3907898900197
1533054427.168,1295.08068806526,1383.9586133333332,965.3147787895786,1325.2297651915396,553.3426287478659
1533054427.1720002,1289.286966401813,1379.5861333333332,970.2090727899844,1332.096981432679,193.95556977298094
1533054427.176,1284.7811778590005,1391.2520533333334,976.0838296196398,1327.5196185251891,202.51337809504273
1533054427.18,1288.6436589679652,1397.0850133333333,974.1269140340618,1319.5086474971297,721.6306150620486
1533054427.184,1291.2182069562955,1398.5425066666667,973.1464512048121,1320.6524022840497,1197.9646519261328
1533054427.188,1298.9418509212865,1408.7509333333333,974.1269140340618,1329.8094718588386,1112.3924102129022
1533054427.1920002,1301.5177171625548,1410.2084266666666,972.1679934120231,1334.3868347663285,892.7692569811229
1533054427.196,1298.2985434874383,1405.8359466666666,971.189535619234,1327.5196185251891,995.45127383109
1533054427.2,1295.08068806526,1407.29344,975.1053718268507,1325.2297651915396,1155.1756103158239
1533054427.204,1293.1494475107777,1407.29344,972.1679934120231,1326.375863738269,1420.4443022701905
1533054427.207,1290.5748995224474,1402.9179733333333,969.2306149971953,1330.9532266457588,944.1102654061065
1533054427.211,1292.5061400769296,1398.5425066666667,965.3147787895786,1340.1079524607385,521.9678925718974
1533054427.215,1293.1494475107777,1395.62752,966.2932365823676,1344.6853153682284,941.2537682938279
1533054427.2189999,1285.4258035457867,1401.46048,972.1679934120231,1342.397805794388,1089.5754823589955
1533054427.2229998,1283.4945629913045,1402.9179733333333,977.0622874124289,1330.9532266457588,998.3019294359816
1533054427.2270002,1288.000351534117,1404.3754666666666,981.9585864492952,1319.5086474971297,864.245176410046
1533054427.231,1288.000351534117,1410.2084266666666,973.1464512048121,1314.9312845896397,710.2221511350953
1533054427.235,1286.7124184134827,1411.6689066666668,966.2932365823676,1316.07503937656,838.5717514438606
1533054427.2389998,1291.2182069562955,1411.6689066666668,976.0838296196398,1327.5196185251891,1109.5417546080105
1533054427.2429998,1292.5061400769296,1413.1264,977.0622874124289,1320.6524022840497,921.2874960448127
1533054427.2470002,1292.5061400769296,1416.0443733333334,976.0838296196398,1312.6414312559903,795.7885513409389
1533054427.25,1295.723995499108,1417.5018666666667,969.2306149971953,1311.49767646907,673.1402622419566
1533054427.254,1288.6436589679652,1410.2084266666666,968.2521572044063,1310.3539216821498,624.6499094218647
1533054427.258,1276.4142264601614,1411.6689066666668,974.1269140340618,1311.49767646907,898.4705681909061
1533054427.262,1281.563322436822,1417.5018666666667,972.1679934120231,1310.3539216821498,958.3693849379514
1533054427.266,1294.4360623784737,1404.3754666666666,972.1679934120231,1312.6414312559903,861.3945208051545
1533054427.27,1298.2985434874383,1404.3754666666666,975.1053718268507,1319.5086474971297,1063.90205739281
1533054427.274,1298.9418509212865,1411.6689066666668,976.0838296196398,1333.240736219599,1300.6466687761
1533054427.2779999,1300.8730914757687,1410.2084266666666,975.1053718268507,1333.240736219599,915.5861848350296
1533054427.282,1299.5864766080726,1416.0443733333334,975.1053718268507,1318.3648927102095,867.0958320149375
1533054427.286,1293.1494475107777,1418.95936,976.0838296196398,1317.2211379232892,1112.3924102129022
1533054427.289,1284.7811778590005,1416.0443733333334,980.9801286565062,1321.7985008307792,867.0958320149375
1533054427.293,1279.63208188234,1401.46048,981.9585864492952,1314.9312845896397,627.5005650267561
1533054427.2970002,1275.7696007733753,1386.8765866666668,984.895964864123,1310.3539216821498,753.005351238017
1533054427.301,1278.9887744484918,1397.0850133333333,983.9155020348733,1309.2101668952298,812.9041679850625
1533054427.305,1280.9200150029742,1402.9179733333333,981.9585864492952,1311.49767646907,895.6199125860145
1533054427.309,1277.7008413278575,1395.62752,979.9996658272565,1322.9422556176994,733.039078989002
1533054427.313,1276.4142264601614,1391.2520533333334,973.1464512048121,1319.5086474971297,661.7317983150033
1533054427.3170002,1274.4829859056792,1385.4190933333334,971.189535619234,1322.9422556176994,849.980215370814
1533054427.321,1278.9887744484918,1395.62752,973.1464512048121,1337.8204428868983,898.4705681909061
1533054427.325,1290.5748995224474,1402.9179733333333,970.2090727899844,1351.5525316093679,653.1739899929415
1533054427.329,1287.3557258473309,1388.33408,965.3147787895786,1348.1189234887981,541.9341648209125
1533054427.332,1278.9887744484918,1382.50112,975.1053718268507,1335.5305895532488,810.0476708727838
1533054427.336,1282.2066298706702,1402.9179733333333,979.0212080344676,1328.6633733121093,767.264470769862
1533054427.34,1286.7124184134827,1417.5018666666667,975.1053718268507,1329.8094718588386,753.005351238017
1533054427.3439999,1290.5748995224474,1405.8359466666666,975.1053718268507,1328.6633733121093,867.0958320149375
1533054427.3479998,1285.4258035457867,1389.79456,975.1053718268507,1326.375863738269,955.5187293330598
1533054427.3520002,1284.7811778590005,1398.5425066666667,970.2090727899844,1326.375863738269,1186.5561879991794
1533054427.356,1289.286966401813,1411.6689066666668,972.1679934120231,1320.6524022840497,772.9716234870322
1533054427.36,1293.1494475107777,1407.29344,975.1053718268507,1321.7985008307792,844.2789041610309
1533054427.3639998,1289.9315920885992,1401.46048,974.1269140340618,1325.2297651915396,884.2114486590611
1533054427.3679998,1290.5748995224474,1400.0,972.1679934120231,1330.9532266457588,633.2077177439264
1533054427.3720002,1295.08068806526,1401.46048,962.3774003747509,1333.240736219599,795.7885513409389
1533054427.375,1302.161024596403,1405.8359466666666,970.2090727899844,1342.397805794388,710.2221511350953
1533054427.379,1303.447639464099,1401.46048,980.9801286565062,1343.5415605813082,810.0476708727838
1533054427.383,1301.5177171625548,1398.5425066666667,975.1053718268507,1340.1079524607385,1012.5610489678265
1533054427.387,1305.3788800185812,1402.9179733333333,975.1053718268507,1356.1298945168576,1160.882763032994
1533054427.391,1303.447639464099,1413.1264,970.2090727899844,1362.997110757997,616.0921010998029
1533054427.395,1299.5864766080726,1421.8773333333334,967.2736994116173,1345.8314139149577,444.9534591807286
1533054427.399,1300.2297840419205,1420.4168533333334,965.3147787895786,1343.5415605813082,650.32333438805
1533054427.4029999,1309.2413611275458,1418.95936,961.3989425819618,1352.6962863962879,573.3089009968811
1533054427.407,1306.6668131392155,1423.3348266666667,965.3147787895786,1348.1189234887981,616.0921010998029
1533054427.411,1299.5864766080726,1427.7102933333333,967.2736994116173,1346.975168701878,909.8790321178593
1533054427.414,1299.5864766080726,1426.2528,970.2090727899844,1342.397805794388,1149.4742991060407
1533054427.418,1293.1494475107777,1426.2528,970.2090727899844,1322.9422556176994,966.9271932600132
1533054427.4220002,1285.4258035457867,1429.1677866666666,966.2932365823676,1322.9422556176994,772.9716234870322
1533054427.426,1283.4945629913045,1418.95936,971.189535619234,1320.6524022840497,972.6285044697963
1533054427.43,1284.7811778590005,1408.7509333333333,978.0427502416785,1321.7985008307792,1100.9839462859488
1533054427.434,1287.3557258473309,1417.5018666666667,976.0838296196398,1340.1079524607385,924.1439931570914
1533054427.438,1288.6436589679652,1414.5838933333334,978.0427502416785,1342.397805794388,684.54872616891
1533054427.4420002,1287.3557258473309,1410.2084266666666,979.0212080344676,1338.9641976738185,1009.710393362935
1533054427.446,1294.4360623784737,1420.4168533333334,978.0427502416785,1353.8423849430174,1075.3163628271504
1533054427.45,1303.447639464099,1420.4168533333334,977.0622874124289,1365.2846203318372,918.4368404399212
1533054427.454,1307.3101205730636,1417.5018666666667,979.9996658272565,1367.574473665487,1092.426137963887
1533054427.457,1311.1726016820282,1413.1264,981.9585864492952,1371.0080817860567,966.9271932600132
1533054427.461,1315.0350827909926,1414.5838933333334,980.9801286565062,1380.1628076010363,630.3570621390348
1533054427.465,1316.321697658689,1421.8773333333334,983.9155020348733,1383.596415721606,1129.5080268570257
1533054427.4689999,1316.321697658689,1421.8773333333334,980.9801286565062,1374.4416899066264,855.6873680879843
1533054427.4729998,1306.0235057053676,1416.0443733333334,979.0212080344676,1358.4197478505073,536.2270121037424
1533054427.4770002,1300.2297840419205,1421.8773333333334,983.9155020348733,1349.2626782757181,790.0813986237687
1533054427.481,1310.5292942481801,1424.79232,985.874422656912,1359.5635026374273,502.0016203228824
1533054427.485,1313.1038422365104,1421.8773333333334,982.9370442420843,1354.9861397299376,553.3426287478659
1533054427.4889998,1310.5292942481801,1423.3348266666667,983.9155020348733,1358.4197478505073,801.4957040581091
1533054427.4929998,1307.9534280069115,1416.0443733333334,983.9155020348733,1358.4197478505073,753.005351238017
1533054427.4970002,1311.1726016820282,1410.2084266666666,981.9585864492952,1353.8423849430174,727.3319262718318
1533054427.5,1307.3101205730636,1416.0443733333334,985.874422656912,1360.7072574243475,827.1632875169073
1533054427.504,1295.08068806526,1411.6689066666668,986.852880449701,1354.9861397299376,387.9111395459619
1533054427.508,1293.7927549446258,1402.9179733333333,984.895964864123,1344.6853153682284,502.0016203228824
1533054427.512,1290.5748995224474,1400.0,986.852880449701,1336.6743443401688,986.8934655090283
1533054427.516,1289.9315920885992,1392.7095466666667,990.7687166573178,1334.3868347663285,855.6873680879843
1533054427.52,1289.286966401813,1389.79456,991.7491794865674,1338.9641976738185,807.1970152678922
1533054427.524,1282.849937304518,1388.33408,996.6434734869732,1346.975168701878,610.3907898900197
1533054427.5279999,1277.0575338940096,1381.0436266666666,1003.4966881094177,1337.8204428868983,644.6161816708798
1533054427.532,1282.849937304518,1392.7095466666667,1003.4966881094177,1332.096981432679,744.4475429159553
1533054427.536,1280.2753893161878,1391.2520533333334,993.7060950721456,1328.6633733121093,721.6306150620486
1533054427.539,1273.195052785045,1389.79456,1000.55930969459,1321.7985008307792,1032.5273212168415
1533054427.543,1284.1378704251524,1402.9179733333333,1011.3283605246512,1332.096981432679,972.6285044697963
1533054427.5470002,1291.2182069562955,1404.3754666666666,1009.3714449390732,1336.6743443401688,861.3945208051545
1533054427.551,1291.2182069562955,1400.0,999.580851901801,1332.096981432679,869.9464876198291
1533054427.555,1295.723995499108,1405.8359466666666,993.7060950721456,1341.2517072476587,841.4282485561394
1533054427.559,1295.08068806526,1411.6689066666668,995.6650156941841,1350.4087768224476,847.1295597659224
1533054427.563,1295.723995499108,1405.8359466666666,992.7276372793565,1358.4197478505073,444.9534591807286
1533054427.5670002,1300.8730914757687,1400.0,997.6219312797623,1368.718228452407,310.896706154793
1533054427.571,1297.0119286197423,1405.8359466666666,997.6219312797623,1365.2846203318372,456.367764615069
1533054427.575,1293.1494475107777,1407.29344,990.7687166573178,1361.8533559710768,687.3993817738016
1533054427.579,1291.8615143901434,1401.46048,991.7491794865674,1359.5635026374273,841.4282485561394
1533054427.582,1289.286966401813,1392.7095466666667,991.7491794865674,1349.2626782757181,986.8934655090283
1533054427.586,1297.6552360535902,1402.9179733333333,994.6845528649345,1349.2626782757181,915.5861848350296
1533054427.59,1302.161024596403,1411.6689066666668,988.8118010717398,1360.7072574243475,604.6836371728496
1533054427.5939999,1291.2182069562955,1401.46048,979.0212080344676,1344.6853153682284,884.2114486590611
1533054427.5979998,1290.5748995224474,1404.3754666666666,977.0622874124289,1328.6633733121093,1061.0514017879186
1533054427.6020002,1298.2985434874383,1401.46048,976.0838296196398,1328.6633733121093,824.3126319120157
1533054427.606,1297.0119286197423,1394.16704,979.9996658272565,1328.6633733121093,915.5861848350296
1533054427.61,1286.7124184134827,1397.0850133333333,979.0212080344676,1332.096981432679,1100.9839462859488
1533054427.6139998,1289.9315920885992,1394.16704,973.1464512048121,1338.9641976738185,1135.2093380668089
1533054427.6179998,1287.3557258473309,1392.7095466666667,980.9801286565062,1326.375863738269,670.289606637065
1533054427.621,1284.1378704251524,1388.33408,988.8118010717398,1326.375863738269,647.4668372757714
1533054427.625,1292.5061400769296,1379.5861333333332,981.9585864492952,1340.1079524607385,1009.710393362935
1533054427.629,1283.4945629913045,1378.1256533333333,980.9801286565062,1335.5305895532488,1058.200746183027
1533054427.633,1278.9887744484918,1378.1256533333333,981.9585864492952,1336.6743443401688,547.6413175380828
1533054427.637,1278.9887744484918,1386.8765866666668,983.9155020348733,1340.1079524607385,502.0016203228824
1533054427.641,1266.75802368775,1391.2520533333334,983.9155020348733,1322.9422556176994,898.4705681909061
1533054427.645,1269.9771973628665,1398.5425066666667,987.8333432789507,1303.4867054410106,821.4619763071242
1533054427.649,1271.2638122305627,1397.0850133333333,985.874422656912,1294.3319796260307,1138.0658351790873
1533054427.6529999,1264.1834756994197,1395.62752,971.189535619234,1286.3210085979713,1389.0695660942222
1533054427.657,1260.3223128433933,1391.2520533333334,965.3147787895786,1281.7436456904813,792.9378957360473
1533054427.661,1258.3910722889111,1388.33408,973.1464512048121,1290.898371505461,544.7848204258041
1533054427.664,1266.75802368775,1394.16704,973.1464512048121,1306.92031356158,536.2270121037424
1533054427.668,1269.9771973628665,1397.0850133333333,967.2736994116173,1309.2101668952298,367.94486729694677
1533054427.6720002,1271.908437917349,1405.8359466666666,965.3147787895786,1320.6524022840497,439.25214797094543
1533054427.676,1275.1262933395271,1407.29344,969.2306149971953,1324.0860104046194,479.1846924689757
1533054427.68,1276.4142264601614,1397.0850133333333,976.0838296196398,1324.0860104046194,636.058373348818
1533054427.684,1278.9887744484918,1394.16704,970.2090727899844,1329.8094718588386,627.5005650267561
1533054427.688,1284.1378704251524,1404.3754666666666,970.2090727899844,1324.0860104046194,701.6643428130335
1533054427.6920002,1288.000351534117,1405.8359466666666,971.189535619234,1327.5196185251891,761.5631595600788
1533054427.696,1287.3557258473309,1398.5425066666667,970.2090727899844,1337.8204428868983,1032.5273212168415
1533054427.7,1291.2182069562955,1401.46048,972.1679934120231,1346.975168701878,1095.2826350761657
1533054427.704,1295.723995499108,1402.9179733333333,964.3363209967896,1350.4087768224476,892.7692569811229
1533054427.707,1300.2297840419205,1400.0,967.2736994116173,1337.8204428868983,1252.1563159560078
1533054427.711,1303.447639464099,1405.8359466666666,968.2521572044063,1324.0860104046194,912.735529230138
1533054427.715,1292.5061400769296,1407.29344,963.3578632040005,1329.8094718588386,564.7510926748192
1533054427.7189999,1284.1378704251524,1408.7509333333333,967.2736994116173,1336.6743443401688,909.8790321178593
1533054427.7229998,1291.2182069562955,1411.6689066666668,964.3363209967896,1327.5196185251891,1106.691099003119
1533054427.7270002,1291.8615143901434,1410.2084266666666,959.4400219599231,1319.5086474971297,952.6622322207811
1533054427.731,1298.9418509212865,1413.1264,955.5241857523064,1321.7985008307792,1129.5080268570257
1533054427.735,1291.2182069562955,1413.1264,954.5457279595173,1311.49767646907,1266.4154354878528
1533054427.7389998,1287.3557258473309,1405.8359466666666,962.3774003747509,1302.3429506540904,1009.710393362935
1533054427.7429998,1283.4945629913045,1400.0,966.2932365823676,1328.6633733121093,1138.0658351790873
1533054427.746,1275.1262933395271,1397.0850133333333,960.4204847891727,1322.9422556176994,1283.5310521319764
1533054427.75,1278.9887744484918,1402.9179733333333,950.6298917519006,1319.5086474971297,1100.9839462859488
1533054427.754,1278.9887744484918,1394.16704,948.6709711298619,1322.9422556176994,975.4850015820749
1533054427.758,1271.908437917349,1398.5425066666667,951.6083495446896,1322.9422556176994,1089.5754823589955
1533054427.762,1278.3441487617056,1397.0850133333333,950.6298917519006,1322.9422556176994,1001.1525850408732
1533054427.766,1281.563322436822,1378.1256533333333,951.6083495446896,1332.096981432679,738.7403901987851
1533054427.77,1261.6089277110893,1378.1256533333333,947.6925133370729,1343.5415605813082,872.8029847321078
1533054427.774,1268.0459568083843,1394.16704,940.8392987146284,1312.6414312559903,844.2789041610309
1533054427.7779999,1279.63208188234,1398.5425066666667,940.8392987146284,1298.9093425335207,832.8704402340776
1533054427.782,1286.7124184134827,1397.0850133333333,939.8608409218393,1343.5415605813082,807.1970152678922
1533054427.786,1299.5864766080726,1407.29344,941.8177565074175,1403.0519658982948,444.9534591807286
1533054427.789,1300.8730914757687,1405.8359466666666,940.8392987146284,1406.4832302590553,405.02091468269833
1533054427.793,1286.7124184134827,1401.46048,931.0487056773562,1351.5525316093679,533.3763564988508
1533054427.7970002,1277.0575338940096,1397.0850133333333,930.0702478845672,1389.317533416016,824.3126319120157
1533054427.801,1286.7124184134827,1402.9179733333333,937.9019202998007,1407.6293288057846,949.8115766158896
1533054427.805,1293.7927549446258,1413.1264,936.9234625070117,1314.9312845896397,781.5294318090939
1533054427.809,1279.63208188234,1407.29344,944.7551349222451,1269.155311754932,869.9464876198291
1533054427.813,1284.7811778590005,1410.2084266666666,958.4615641671342,1278.3100375699116,858.5380236928758
1533054427.8170002,1289.9315920885992,1418.95936,975.1053718268507,1336.6743443401688,838.5717514438606
1533054427.821,1296.3673029329561,1418.95936,1000.55930969459,1324.0860104046194,958.3693849379514
1533054427.825,1297.6552360535902,1418.95936,1021.1189535619234,1274.876429449342,835.7210958389691
1533054427.829,1282.849937304518,1424.79232,1053.4261060521071,1272.5889198755017,553.3426287478659
1533054427.832,1288.000351534117,1435.0007466666666,1082.7978851639236,1230.2442114015544,932.7018014791531
1533054427.836,1293.7927549446258,1437.91872,1102.3770662020074,1245.1223986707535,1235.0406993118843
1533054427.84,1258.3910722889111,1430.62528,1127.8330091062073,1255.420879272653,830.0139431217989
1533054427.8439999,1219.7702159580797,1427.7102933333333,1146.433732351502,1226.8106032809847,758.7066624478002
1533054427.8479998,1193.378792135052,1436.45824,1157.2027831815633,1199.3464258360457,992.5947767188114
1533054427.8520002,1158.6204169131854,1420.4168533333334,1161.11861938918,1189.0456014743365,924.1439931570914
1533054427.856,1114.8504646056936,1401.46048,1173.84659084128,1162.7251788163176,849.980215370814
1533054427.86,1078.1608488293446,1392.7095466666667,1192.4473140865746,1120.3804703423702,966.9271932600132
1533054427.8639998,1064.6434832009065,1386.8765866666668,1201.2594493310578,1114.6593526479603,810.0476708727838
1533054427.8679998,1029.88510797904,1373.7501866666667,1209.0911217462913,1103.2147734993312,561.9004370699278
1533054427.871,988.0463962260303,1353.3333333333333,1210.0695795390802,1094.0600476843513,715.9234623448784
1533054427.875,951.3567804496814,1338.7524266666667,1206.1537433314636,1087.1928314432118,946.960921010998
1533054427.879,922.3908086383234,1327.08352,1205.1752855386744,1065.4497716926828,667.4331095247865
1533054427.883,914.6671646733325,1316.8750933333333,1189.509935671747,1047.1379763029142,812.9041679850625
1533054427.887,912.7359241188501,1308.1271466666667,1186.5745622933798,1033.4058875804446,1203.665963135916
1533054427.891,904.367654467073,1297.91872,1180.6998054637243,1023.1050632187356,992.5947767188114
1533054427.895,887.6324334164567,1271.6689066666668,1160.140161596391,1011.6604840701063,638.9148704610966
1533054427.899,869.6092792452063,1246.8765866666668,1162.0990822184297,996.7846405607166,695.9571900958633
1533054427.9029999,859.954394725733,1233.7501866666667,1159.161703803602,992.2072776532268,955.5187293330598
1533054427.907,863.1722501479113,1226.4597333333334,1144.476816765924,986.4838161990075,864.245176410046
1533054427.911,868.9659718113581,1214.7938133333334,1128.8114668989963,964.7407564484785,772.9716234870322
1533054427.914,860.597702159581,1181.25056,1116.0834954468964,945.2852062717897,675.9909178468482
1533054427.918,856.7352210506164,1166.6666666666667,1117.063958276146,952.1524225129291,1135.2093380668089
1533054427.9220002,857.3798467374027,1165.2091733333334,1109.230280824452,959.0172949942591,1072.4598657148717
1533054427.926,865.1034907023936,1172.5026133333333,1103.3575290312572,965.8845112353986,541.9341648209125
1533054427.93,872.8271346673846,1169.58464,1090.629557579157,969.3181193559683,527.6750452890677
1533054427.934,871.5405197996885,1156.45824,1080.838964541885,963.5970016615582,935.5524570840447
1533054427.938,877.9775488969834,1153.5432533333333,1094.545393786774,980.7626985045976,875.6536403369994
1533054427.9420002,895.3560773814477,1157.91872,1086.7137213715405,997.9283953476368,924.1439931570914
1533054427.946,917.2417126616627,1169.58464,1063.2166990893793,994.494787227067,1095.2826350761657
1533054427.95,935.2648668329134,1176.8750933333333,1055.3850266741458,995.6408857737965,1092.426137963887
1533054427.9529998,950.0688473290471,1188.544,1055.3850266741458,1013.9503374037558,1380.5117577721603
1533054427.957,966.8040683796634,1184.1685333333332,1057.3419422597237,1031.1160342467952,1277.8297409221932
1533054427.961,975.1723380314405,1168.1271466666667,1060.2793206745516,1042.5606133954243,1283.5310521319764
1533054427.965,990.6209442143606,1179.7930666666666,1064.1951568821682,1059.7263102384636,1069.6092101099803
1533054427.9689999,1013.1498869284237,1206.04288,1063.2166990893793,1068.8833798132525,781.5294318090939
1533054427.9729998,1027.3105599907096,1207.5003733333333,1053.4261060521071,1097.493655804921,835.7210958389691
1533054427.9770002,1050.4828101386208,1203.1278933333333,1052.4476482593182,1127.2476865835097,576.1595566017726
1533054427.981,1077.5175413954964,1216.2513066666668,1063.2166990893793,1139.836020519059,248.14723380285608
1533054427.985,1095.540695566747,1229.3777066666667,1066.154077504207,1155.8579625751781,564.7510926748192
1533054427.9889998,1118.0683200278718,1242.50112,1074.9662127486902,1177.6010223257074,684.54872616891
1533054427.9929998,1136.0914741991223,1246.8765866666668,1084.7548007495018,1194.7667191687465,986.8934655090283
1533054427.996,1147.677599273078,1251.2520533333334,1093.566935993985,1211.934759771595,1166.5899157501642
1533054428.0,1161.1949649015157,1261.46048,1099.4416928236403,1235.9676728557736,981.1863127918581
1533054428.004,1174.7123305299535,1260.0,1090.629557579157,1253.1333696988129,1058.200746183027
1533054428.008,1187.5863887245434,1255.62752,1088.6726419935792,1262.2880955137925,849.980215370814
1533054428.012,1199.815821232347,1267.29344,1089.6510997863681,1265.7217036343623,607.534292777741
1533054428.016,1212.6898794269368,1277.5018666666667,1083.7763429567126,1269.155311754932,601.832981567958
1533054428.02,1225.5626193685885,1283.3348266666667,1086.7137213715405,1280.5998909035613,755.8560068429086
1533054428.024,1235.218822141,1297.91872,1085.7352635787513,1286.3210085979713,1021.1188572898883
1533054428.0279999,1242.942466105991,1313.9601066666667,1078.882048956307,1298.9093425335207,981.1863127918581
1533054428.032,1259.6776871566071,1330.0014933333334,1080.838964541885,1314.9312845896397,667.4331095247865
1533054428.036,1272.5517453511968,1350.4183466666666,1081.8194273711347,1318.3648927102095,715.9234623448784
1533054428.039,1281.563322436822,1360.6267733333334,1075.9446705414791,1318.3648927102095,984.0428099041367
1533054428.043,1290.5748995224474,1350.4183466666666,1069.0914559190346,1325.2297651915396,1029.67666561195
1533054428.0470002,1294.4360623784737,1348.9608533333333,1068.1129981262457,1343.5415605813082,653.1739899929415
1533054428.051,1304.0922651508852,1365.00224,1067.1325352969961,1359.5635026374273,784.3800874139855
1533054428.055,1312.4592165497243,1376.66816,1066.154077504207,1359.5635026374273,961.220040542843
1533054428.059,1311.1726016820282,1373.7501866666667,1062.2382412965903,1364.1408655449172,750.1546956331255
1533054428.063,1313.1038422365104,1370.8352,1054.4065688813566,1369.8619832393272,735.8897345938935
1533054428.0670002,1320.1841787676533,1370.8352,1056.3634844669348,1374.4416899066264,687.3993817738016
1533054428.071,1318.8962456470192,1373.7501866666667,1057.3419422597237,1371.0080817860567,621.7992538169731
1533054428.075,1319.539553080867,1379.5861333333332,1053.4261060521071,1366.4307188785667,724.4812706669402
1533054428.0779998,1334.3448518299392,1391.2520533333334,1047.5533542589123,1379.019052814116,610.3907898900197
1533054428.082,1347.8622174583772,1397.0850133333333,1045.5944336368736,1387.0300238421758,598.9823259630664
1533054428.086,1347.2189100245291,1395.62752,1052.4476482593182,1387.0300238421758,804.3463596630006
1533054428.09,1346.574284337743,1397.0850133333333,1046.5728914296626,1393.894896323506,941.2537682938279
1533054428.0939999,1356.2304871101544,1402.9179733333333,1036.784303428851,1406.4832302590553,830.0139431217989
1533054428.0979998,1363.9541310751454,1402.9179733333333,1032.8664621847736,1406.4832302590553,852.8367124830927
1533054428.1020002,1382.6205926802436,1404.3754666666666,1028.950625977157,1417.9278094076844,795.7885513409389
1533054428.106,1385.195140668574,1404.3754666666666,1022.0974113547124,1424.7950256488239,544.7848204258041
1533054428.11,1383.2639001140917,1411.6689066666668,1013.2872811466899,1420.217662741334,747.2981985208469
1533054428.1139998,1393.563410320351,1413.1264,1007.4125243170345,1428.2286337693936,904.1777209080763
1533054428.1179998,1399.3558137308598,1418.95936,1015.2441967322679,1421.3614175282542,775.8222790919237
1533054428.121,1410.2986313709673,1426.2528,1013.2872811466899,1411.0629369263543,835.7210958389691
1533054428.125,1414.161112479932,1417.5018666666667,998.6023941090119,1407.6293288057846,835.7210958389691
1533054428.129,1416.0923530344141,1420.4168533333334,991.7491794865674,1409.916838379625,750.1546956331255
1533054428.133,1414.8044199137803,1427.7102933333333,992.7276372793565,1403.0519658982948,738.7403901987851
1533054428.137,1411.5865644916016,1426.2528,993.7060950721456,1403.0519658982948,832.8704402340776
1533054428.141,1419.3102084565926,1426.2528,997.6219312797623,1413.3504465001947,830.0139431217989
1533054428.145,1418.6669010227445,1426.2528,997.6219312797623,1399.6183577777251,687.3993817738016
1533054428.149,1410.9419388048154,1420.4168533333334,992.7276372793565,1383.596415721606,955.5187293330598
1533054428.1529999,1406.4361502620027,1408.7509333333333,986.852880449701,1377.8729542673868,1203.665963135916
1533054428.157,1398.7125062970117,1402.9179733333333,984.895964864123,1373.295591359897,1186.5561879991794
1533054428.161,1402.5749874059763,1411.6689066666668,981.9585864492952,1375.5854446935464,1309.2044770981618
1533054428.164,1407.080775948789,1410.2084266666666,979.0212080344676,1380.1628076010363,964.0765376551216
1533054428.168,1401.287054285342,1401.46048,981.9585864492952,1366.4307188785667,519.117236967006
1533054428.1720002,1409.0120165032713,1395.62752,979.0212080344676,1368.718228452407,892.7692569811229
1533054428.176,1411.5865644916016,1413.1264,983.9155020348733,1389.317533416016,1063.90205739281
1533054428.18,1414.8044199137803,1423.3348266666667,1000.55930969459,1397.3285044440754,1226.4887324972096
1533054428.184,1406.4361502620027,1401.46048,997.6219312797623,1377.8729542673868,944.1102654061065
1533054428.188,1384.551833234726,1395.62752,975.1053718268507,1344.6853153682284,681.6980705640184
1533054428.1920002,1381.3326595596095,1417.5018666666667,970.2090727899844,1343.5415605813082,944.1102654061065
1533054428.196,1373.6090155946185,1401.46048,979.0212080344676,1343.5415605813082,735.8897345938935
1533054428.2,1364.5974385089933,1383.9586133333332,987.8333432789507,1326.375863738269,849.980215370814
1533054428.2029998,1354.94255398952,1392.7095466666667,975.1053718268507,1305.77655877466,944.1102654061065
1533054428.207,1334.3448518299392,1391.2520533333334,956.504648581556,1277.1662827829916,810.0476708727838
1533054428.211,1329.1957558532786,1420.4168533333334,966.2932365823676,1278.3100375699116,735.8897345938935
1533054428.215,1323.4020341898317,1426.2528,965.3147787895786,1287.4647633848915,698.8078457007549
1533054428.2189999,1320.1841787676533,1433.5432533333333,956.504648581556,1270.2990665418522,687.3993817738016
1533054428.2229998,1316.9650050925368,1462.71104,963.3578632040005,1248.5560067913232,753.005351238017
1533054428.2270002,1307.9534280069115,1440.8337066666666,966.2932365823676,1225.6668484940647,778.6729346968153
1533054428.231,1309.2413611275458,1445.2091733333334,960.4204847891727,1227.9567018277141,721.6306150620486
1533054428.235,1297.0119286197423,1472.9194666666667,950.6298917519006,1200.4901806229657,593.2751732458962
1533054428.2389998,1286.0691109796348,1475.8344533333334,955.5241857523064,1174.1674142051377,727.3319262718318
1533054428.2429998,1284.1378704251524,1513.7501866666667,958.4615641671342,1175.313512751867,964.0765376551216
1533054428.246,1268.6892642422324,1506.4597333333334,951.6083495446896,1151.2805996676884,921.2874960448127
1533054428.25,1260.3223128433933,1474.37696,947.6925133370729,1130.6812947040794,1032.5273212168415
1533054428.254,1257.7464466021247,1513.7501866666667,953.5672701667283,1131.8250494909996,761.5631595600788
1533054428.258,1251.9540431916162,1521.0436266666666,951.6083495446896,1130.6812947040794,185.39776145091918
1533054428.262,1240.3679181176606,1502.0842666666667,940.8392987146284,1115.8031074348805,387.9111395459619
1533054428.266,1244.873706660473,1507.9172266666667,937.9019202998007,1127.2476865835097,670.289606637065
1533054428.27,1248.7361877694377,1513.7501866666667,933.0076262993949,1129.53519615735,730.1884233841104
1533054428.274,1234.5741964542137,1505.00224,923.2170332621228,1111.2257445273906,638.9148704610966
1533054428.2779999,1234.5741964542137,1512.2926933333333,926.1544116769504,1110.0819897404704,673.1402622419566
1533054428.282,1244.2303992266252,1510.8352,928.1113272625284,1123.81407846294,935.5524570840447
1533054428.286,1244.873706660473,1505.00224,921.258112640084,1127.2476865835097,678.8474149591268
1533054428.289,1246.160321528169,1515.2106666666666,919.3011970545059,1142.1258738527085,675.9909178468482
1533054428.293,1250.0228026371337,1509.3777066666667,918.322739261717,1147.8469915471187,810.0476708727838
1533054428.2970002,1250.6661100709819,1505.00224,908.5321462244448,1154.7142077882581,607.534292777741
1533054428.301,1259.034379722759,1507.9172266666667,913.4264402248505,1176.4572675387872,579.0160537140513
1533054428.305,1262.8968608317236,1500.6267733333334,915.3853608468892,1163.8689336032378,1023.9753544021669
1533054428.309,1263.5401682655718,1499.16928,916.3638186396782,1165.0126883901578,1292.088860454038
1533054428.313,1270.6205047967146,1497.7088,911.4695246392724,1176.4572675387872,1163.7334186378857
1533054428.3170002,1289.286966401813,1494.7938133333334,902.6573893947893,1181.0346304462769,698.8078457007549
1533054428.321,1307.9534280069115,1490.4183466666666,903.6358471875783,1187.9018466874163,695.9571900958633
1533054428.325,1316.9650050925368,1488.9608533333333,906.5732256024061,1219.9457307996545,889.9127598688442
1533054428.3279998,1317.609630779323,1488.9608533333333,906.5732256024061,1259.998242180143,1180.8490352820093
1533054428.332,1320.8274862015014,1477.2919466666667,903.6358471875783,1278.3100375699116,1126.657371252134
1533054428.336,1332.413611275457,1462.71104,904.616310016828,1297.7655877466004,1015.4175460801051
1533054428.34,1332.413611275457,1462.71104,914.4048980176395,1318.3648927102095,1217.9309241751478
1533054428.3439999,1328.5511301664924,1462.71104,917.3422764324673,1330.9532266457588,1021.1188572898883
1533054428.3479998,1334.9881592637873,1458.3355733333333,933.0076262993949,1356.1298945168576,1001.1525850408732
1533054428.3520002,1345.287669470047,1453.9601066666667,944.7551349222451,1385.8839252954463,887.0621042639527
1533054428.356,1349.1488323260733,1437.91872,932.0271634701453,1375.5854446935464,898.4705681909061
1533054428.36,1347.8622174583772,1426.2528,925.1759538841615,1360.7072574243475,1272.122588205023
1533054428.3639998,1354.94255398952,1427.7102933333333,925.1759538841615,1374.4416899066264,1021.1188572898883
1533054428.3679998,1360.7349574000289,1421.8773333333334,927.1328694697395,1392.7511415365857,713.0728067399868
1533054428.371,1361.379583086815,1411.6689066666668,928.1113272625284,1407.6293288057846,772.9716234870322
1533054428.375,1358.8050350984847,1395.62752,932.0271634701453,1398.4722592309956,972.6285044697963
1533054428.379,1347.8622174583772,1382.50112,935.9450047142226,1381.3065623879563,992.5947767188114
1533054428.383,1353.011313435038,1392.7095466666667,934.964541884973,1397.3285044440754,1334.87206055696
1533054428.387,1358.8050350984847,1391.2520533333334,936.9234625070117,1408.7730835927048,1306.347979985883
1533054428.391,1360.7349574000289,1370.8352,946.7140555442838,1416.7840546207642,564.7510926748192
1533054428.395,1363.3108236412972,1367.9172266666667,952.5868073374787,1428.2286337693936,581.8667093189429
1533054428.399,1362.022890520663,1370.8352,949.6514339591116,1419.073907954414,889.9127598688442
1533054428.4029999,1367.1719864973236,1363.54176,950.6298917519006,1415.6402998338442,958.3693849379514
1533054428.407,1369.746534485654,1359.16928,957.4831063743451,1421.3614175282542,1004.0090821531518
1533054428.41,1368.459919617958,1365.00224,956.504648581556,1430.5161433432338,935.5524570840447
1533054428.414,1362.666197954511,1360.6267733333334,955.5241857523064,1414.4942012871147,1112.3924102129022
1533054428.418,1360.0916499661807,1354.7938133333334,957.4831063743451,1399.6183577777251,926.994648761983
1533054428.4220002,1358.8050350984847,1363.54176,959.4400219599231,1401.9058673515653,881.3549515467824
1533054428.426,1358.8050350984847,1366.4597333333334,955.5241857523064,1398.4722592309956,772.9716234870322
1533054428.43,1355.5858614233682,1362.0842666666667,947.6925133370729,1391.6073867496655,407.877411794977
1533054428.434,1349.7934580128594,1360.6267733333334,947.6925133370729,1388.1737786290958,872.8029847321078
1533054428.438,1347.8622174583772,1362.0842666666667,950.6298917519006,1387.0300238421758,1109.5417546080105
1533054428.4420002,1351.7246985673416,1357.7088,942.7982193366671,1381.3065623879563,1169.440571355056
1533054428.446,1343.3564289155645,1356.2513066666668,936.9234625070117,1391.6073867496655,918.4368404399212
1533054428.45,1345.287669470047,1359.16928,941.8177565074175,1405.339475472135,476.3340368640841
1533054428.4529998,1359.4483425323326,1365.00224,939.8608409218393,1405.339475472135,593.2751732458962
1533054428.457,1359.4483425323326,1370.8352,935.9450047142226,1413.3504465001947,675.9909178468482
1533054428.461,1362.666197954511,1375.2106666666666,944.7551349222451,1415.6402998338442,618.9485982120815
1533054428.465,1368.459919617958,1376.66816,954.5457279595173,1421.3614175282542,841.4282485561394
1533054428.4689999,1361.379583086815,1369.3777066666667,953.5672701667283,1424.7950256488239,972.6285044697963
1533054428.4729998,1353.011313435038,1367.9172266666667,946.7140555442838,1413.3504465001947,767.264470769862
1533054428.4770002,1347.2189100245291,1367.9172266666667,954.5457279595173,1406.4832302590553,932.7018014791531
1533054428.481,1342.0684957949302,1373.7501866666667,954.5457279595173,1400.7621125646451,949.8115766158896
1533054428.485,1342.0684957949302,1401.46048,968.2521572044063,1415.6402998338442,735.8897345938935
1533054428.4889998,1329.1957558532786,1398.5425066666667,967.2736994116173,1406.4832302590553,889.9127598688442
1533054428.4929998,1309.884668561394,1376.66816,949.6514339591116,1379.019052814116,1004.0090821531518
1533054428.496,1313.1038422365104,1382.50112,957.4831063743451,1373.295591359897,727.3319262718318
1533054428.5,1316.321697658689,1401.46048,952.5868073374787,1359.5635026374273,684.54872616891
1533054428.504,1288.000351534117,1402.9179733333333,943.7766771294562,1313.7875298027195,741.5968873110637
1533054428.508,1269.9771973628665,1401.46048,949.6514339591116,1282.8874004774016,761.5631595600788
1533054428.512,1273.195052785045,1417.5018666666667,949.6514339591116,1272.5889198755017,772.9716234870322
1533054428.516,1255.1718986137944,1424.79232,950.6298917519006,1246.2661534576735,584.7173649238343
1533054428.52,1237.148744442544,1432.08576,958.4615641671342,1219.9457307996545,550.4919731429744
1533054428.524,1224.9193119347403,1432.08576,951.6083495446896,1186.755748140687,573.3089009968811
1533054428.5279999,1213.3331868607847,1423.3348266666667,935.9450047142226,1155.8579625751781,693.1065344909717
1533054428.532,1210.1153314386065,1439.3762133333332,924.1954910549117,1143.2696286396288,436.4014923660539
1533054428.535,1208.8273983179722,1449.58464,930.0702478845672,1135.2586576115693,667.4331095247865
1533054428.539,1219.1269085242318,1439.3762133333332,945.7335927150342,1158.1454721490186,1098.1332906810571
1533054428.543,1213.9764942946329,1455.4176,936.9234625070117,1153.5681092415286,892.7692569811229
1533054428.5470002,1199.172513798499,1464.1685333333332,924.1954910549117,1119.2367155554502,810.0476708727838
1533054428.551,1208.184090884124,1453.9601066666667,924.1954910549117,1123.81407846294,758.7066624478002
1533054428.555,1212.0452537401507,1453.9601066666667,922.2385754693337,1132.9688042779196,664.5824539198949
1533054428.559,1211.4019463063025,1459.7930666666666,928.1113272625284,1142.1258738527085,875.6536403369994
1533054428.563,1222.9880713802581,1470.0014933333334,931.0487056773562,1165.0126883901578,818.6054791948455
1533054428.5670002,1234.5741964542137,1470.0014933333334,927.1328694697395,1194.7667191687465,690.2558788860802
1533054428.571,1248.0915620826515,1475.8344533333334,927.1328694697395,1227.9567018277141,767.264470769862
1533054428.575,1266.75802368775,1483.1278933333333,925.1759538841615,1248.5560067913232,935.5524570840447
1533054428.5779998,1286.7124184134827,1471.4589866666668,930.0702478845672,1279.4537923568319,1135.2093380668089
1533054428.582,1303.447639464099,1472.9194666666667,933.0076262993949,1310.3539216821498,921.2874960448127
1533054428.586,1312.4592165497243,1471.4589866666668,927.1328694697395,1328.6633733121093,664.5824539198949
1533054428.59,1325.333274744314,1459.7930666666666,925.1759538841615,1357.2736493037778,958.3693849379514
1533054428.5939999,1346.574284337743,1452.5026133333333,926.1544116769504,1383.596415721606,946.960921010998
1533054428.5979998,1360.0916499661807,1443.75168,928.1113272625284,1406.4832302590553,675.9909178468482
1533054428.6020002,1367.81661218411,1437.91872,938.8803780925897,1429.3723885563138,804.3463596630006
1533054428.606,1381.3326595596095,1433.5432533333333,939.8608409218393,1445.394330612433,1186.5561879991794
1533054428.61,1393.563410320351,1429.1677866666666,932.0271634701453,1460.2725178816318,966.9271932600132
1533054428.6139998,1403.8616022736724,1429.1677866666666,935.9450047142226,1482.0155776321608,641.7655260659882
1533054428.6179998,1400.000439417646,1427.7102933333333,941.8177565074175,1494.6039115677102,841.4282485561394
1533054428.621,1396.1379583086814,1416.0443733333334,937.9019202998007,1490.0265486602204,753.005351238017
1533054428.625,1403.2182948398247,1405.8359466666666,929.0917900917782,1488.8827938733002,618.9485982120815
1533054428.629,1401.287054285342,1404.3754666666666,929.0917900917782,1494.6039115677102,755.8560068429086
1533054428.633,1397.4258914293157,1401.46048,929.0917900917782,1487.736695326571,715.9234623448784
1533054428.637,1397.4258914293157,1400.0,928.1113272625284,1484.3054309658105,547.6413175380828
1533054428.641,1406.4361502620027,1400.0,926.1544116769504,1502.6148825957698,673.1402622419566
1533054428.645,1403.8616022736724,1395.62752,926.1544116769504,1506.0484907163395,898.4705681909061
1533054428.649,1404.5062279604588,1386.8765866666668,933.9860840921839,1508.338344049989,986.8934655090283
1533054428.6529999,1405.1495353943071,1382.50112,939.8608409218393,1507.1922455032595,946.960921010998
1533054428.657,1390.3442366452346,1372.2926933333333,944.7551349222451,1504.9047359294193,1203.665963135916
1533054428.66,1396.1379583086814,1369.3777066666667,943.7766771294562,1519.7805794388091,1426.1456134799737
1533054428.664,1398.0691988631638,1376.66816,945.7335927150342,1517.4930698649687,1337.7227161618514
1533054428.668,1390.3442366452346,1372.2926933333333,952.5868073374787,1507.1922455032595,955.5187293330598
1533054428.6720002,1393.563410320351,1367.9172266666667,956.504648581556,1510.6258536238292,713.0728067399868
1533054428.676,1391.6321697658689,1365.00224,956.504648581556,1507.1922455032595,482.0353480738672
1533054428.68,1381.9772852463957,1366.4597333333334,951.6083495446896,1499.1812744752,601.832981567958
1533054428.684,1385.195140668574,1382.50112,957.4831063743451,1498.0375196882799,1158.0321074281026
1533054428.688,1389.0576217775385,1382.50112,966.2932365823676,1502.6148825957698,1100.9839462859488
1533054428.6920002,1387.1263812230563,1383.9586133333332,966.2932365823676,1504.9047359294193,841.4282485561394
1533054428.696,1381.9772852463957,1386.8765866666668,970.2090727899844,1498.0375196882799,1004.0090821531518
1533054428.7,1371.0344676062882,1378.1256533333333,971.189535619234,1479.7257242985113,926.994648761983
1533054428.7029998,1369.746534485654,1385.4190933333334,972.1679934120231,1480.8718228452408,698.8078457007549
1533054428.707,1373.6090155946185,1392.7095466666667,972.1679934120231,1483.159332419081,807.1970152678922
1533054428.711,1371.6777750401363,1400.0,968.2521572044063,1469.4272436966114,872.8029847321078
1533054428.715,1365.2407459428414,1401.46048,973.1464512048121,1470.5709984835316,787.2307430188771
1533054428.7189999,1366.5286790634757,1392.7095466666667,979.0212080344676,1468.2834889096914,889.9127598688442
1533054428.7229998,1360.0916499661807,1389.79456,978.0427502416785,1452.261546853572,1237.897196424163
1533054428.7270002,1354.94255398952,1394.16704,981.9585864492952,1440.816967704943,1058.200746183027
1533054428.731,1353.6546208688858,1398.5425066666667,981.9585864492952,1428.2286337693936,675.9909178468482
1533054428.735,1352.3680060011898,1400.0,975.1053718268507,1419.073907954414,764.4138151649704
1533054428.7389998,1350.4367654467076,1402.9179733333333,978.0427502416785,1419.073907954414,764.4138151649704
1533054428.742,1344.6430437832605,1392.7095466666667,978.0427502416785,1399.6183577777251,969.7778488649047
1533054428.746,1341.4251883610823,1381.0436266666666,975.1053718268507,1395.0409948702352,984.0428099041367
1533054428.75,1345.287669470047,1388.33408,979.9996658272565,1409.916838379625,827.1632875169073
1533054428.754,1347.2189100245291,1397.0850133333333,984.895964864123,1403.0519658982948,1120.9502185349638
1533054428.758,1340.7818809272342,1397.0850133333333,986.852880449701,1397.3285044440754,707.3656540228167
1533054428.762,1338.2073329389038,1392.7095466666667,986.852880449701,1404.1957206852148,293.7869310180565
1533054428.766,1337.5627072521177,1389.79456,988.8118010717398,1404.1957206852148,733.039078989002
1533054428.77,1333.056918709305,1386.8765866666668,988.8118010717398,1401.9058673515653,872.8029847321078
1533054428.774,1331.770303841609,1391.2520533333334,987.8333432789507,1400.7621125646451,356.5364033699934
1533054428.7779999,1324.689967310466,1382.50112,981.9585864492952,1389.317533416016,436.4014923660539
1533054428.782,1313.1038422365104,1373.7501866666667,973.1464512048121,1379.019052814116,978.3356571869665
1533054428.785,1313.1038422365104,1367.9172266666667,975.1053718268507,1380.1628076010363,981.1863127918581
1533054428.789,1320.8274862015014,1383.9586133333332,978.0427502416785,1387.0300238421758,958.3693849379514
1533054428.793,1318.252938213171,1397.0850133333333,974.1269140340618,1376.7291994804666,1063.90205739281
1533054428.7970002,1311.1726016820282,1386.8765866666668,969.2306149971953,1373.295591359897,1169.440571355056
1533054428.801,1317.609630779323,1388.33408,971.189535619234,1376.7291994804666,1129.5080268570257
1533054428.805,1323.4020341898317,1391.2520533333334,976.0838296196398,1373.295591359897,1272.122588205023
1533054428.809,1310.5292942481801,1388.33408,969.2306149971953,1369.8619832393272,918.4368404399212
1533054428.813,1314.3904571042065,1389.79456,964.3363209967896,1380.1628076010363,664.5824539198949
1533054428.8170002,1322.1154193221357,1392.7095466666667,966.2932365823676,1391.6073867496655,904.1777209080763
1533054428.821,1311.8159091158761,1389.79456,964.3363209967896,1389.317533416016,744.4475429159553
1533054428.825,1315.6783902248408,1386.8765866666668,966.2932365823676,1384.740170508526,844.2789041610309
1533054428.8279998,1320.1841787676533,1389.79456,975.1053718268507,1388.1737786290958,1100.9839462859488
1533054428.832,1316.321697658689,1392.7095466666667,967.2736994116173,1392.7511415365857,984.0428099041367
1533054428.836,1313.1038422365104,1400.0,967.2736994116173,1387.0300238421758,1006.8597377580434
1533054428.84,1310.5292942481801,1398.5425066666667,972.1679934120231,1374.4416899066264,1092.426137963887
1533054428.8439999,1308.598053693698,1391.2520533333334,968.2521572044063,1361.8533559710768,1046.7922822560736
1533054428.8479998,1309.2413611275458,1386.8765866666668,966.2932365823676,1351.5525316093679,698.8078457007549
1533054428.8520002,1311.1726016820282,1389.79456,963.3578632040005,1354.9861397299376,422.1365313268219
1533054428.856,1313.7471496703586,1391.2520533333334,961.3989425819618,1350.4087768224476,627.5005650267561
1533054428.86,1310.5292942481801,1385.4190933333334,960.4204847891727,1346.975168701878,681.6980705640184
1533054428.8639998,1311.1726016820282,1402.9179733333333,961.3989425819618,1334.3868347663285,792.9378957360473
1533054428.867,1315.0350827909926,1411.6689066666668,961.3989425819618,1322.9422556176994,730.1884233841104
1533054428.871,1310.5292942481801,1405.8359466666666,962.3774003747509,1328.6633733121093,490.59315639592904
1533054428.875,1303.447639464099,1404.3754666666666,960.4204847891727,1336.6743443401688,444.9534591807286
1533054428.879,1303.447639464099,1411.6689066666668,962.3774003747509,1328.6633733121093,487.74250079103746
1533054428.883,1302.8043320302509,1416.0443733333334,961.3989425819618,1324.0860104046194,347.97859504793166
1533054428.887,1298.9418509212865,1408.7509333333333,957.4831063743451,1332.096981432679,593.2751732458962
1533054428.891,1297.0119286197423,1404.3754666666666,965.3147787895786,1351.5525316093679,972.6285044697963
1533054428.895,1295.723995499108,1401.46048,967.2736994116173,1356.1298945168576,1009.710393362935
1533054428.899,1297.6552360535902,1405.8359466666666,969.2306149971953,1348.1189234887981,821.4619763071242
1533054428.9029999,1298.2985434874383,1402.9179733333333,972.1679934120231,1350.4087768224476,530.5257008939593
1533054428.907,1295.08068806526,1391.2520533333334,970.2090727899844,1345.8314139149577,533.3763564988508
1533054428.91,1297.6552360535902,1395.62752,968.2521572044063,1344.6853153682284,975.4850015820749
1533054428.914,1297.6552360535902,1397.0850133333333,968.2521572044063,1340.1079524607385,718.77411794977
1533054428.918,1293.7927549446258,1395.62752,979.0212080344676,1338.9641976738185,661.7317983150033
1533054428.9220002,1302.161024596403,1398.5425066666667,977.0622874124289,1350.4087768224476,995.45127383109
1533054428.926,1304.0922651508852,1398.5425066666667,973.1464512048121,1356.1298945168576,867.0958320149375
1533054428.93,1298.2985434874383,1398.5425066666667,967.2736994116173,1354.9861397299376,929.8453043668745
1533054428.934,1299.5864766080726,1402.9179733333333,959.4400219599231,1341.2517072476587,861.3945208051545
1533054428.938,1304.7355725847333,1411.6689066666668,965.3147787895786,1352.6962863962879,844.2789041610309
1533054428.9420002,1302.8043320302509,1414.5838933333334,970.2090727899844,1359.5635026374273,1006.8597377580434
1533054428.946,1294.4360623784737,1408.7509333333333,968.2521572044063,1341.2517072476587,1229.339388102101
1533054428.95,1298.2985434874383,1402.9179733333333,959.4400219599231,1332.096981432679,1277.8297409221932
1533054428.9529998,1303.447639464099,1404.3754666666666,964.3363209967896,1329.8094718588386,1026.8260100070586
1533054428.957,1293.7927549446258,1404.3754666666666,974.1269140340618,1337.8204428868983,753.005351238017
1533054428.961,1291.8615143901434,1402.9179733333333,969.2306149971953,1340.1079524607385,849.980215370814
1533054428.965,1298.9418509212865,1407.29344,968.2521572044063,1335.5305895532488,986.8934655090283
1533054428.9689999,1302.161024596403,1414.5838933333334,964.3363209967896,1338.9641976738185,904.1777209080763
1533054428.9729998,1297.6552360535902,1423.3348266666667,956.504648581556,1334.3868347663285,795.7885513409389
1533054428.9770002,1293.7927549446258,1426.2528,962.3774003747509,1336.6743443401688,775.8222790919237
1533054428.981,1291.2182069562955,1421.8773333333334,962.3774003747509,1338.9641976738185,926.994648761983
1533054428.985,1295.08068806526,1427.7102933333333,961.3989425819618,1328.6633733121093,926.994648761983
1533054428.9889998,1300.2297840419205,1427.7102933333333,962.3774003747509,1337.8204428868983,1063.90205739281
1533054428.992,1297.0119286197423,1420.4168533333334,959.4400219599231,1353.8423849430174,698.8078457007549
1533054428.996,1299.5864766080726,1421.8773333333334,963.3578632040005,1338.9641976738185,484.8860036787588
1533054429.0,1299.5864766080726,1423.3348266666667,966.2932365823676,1332.096981432679,715.9234623448784
1533054429.004,1298.2985434874383,1421.8773333333334,967.2736994116173,1340.1079524607385,1052.4935934658567
1533054429.008,1302.8043320302509,1420.4168533333334,956.504648581556,1342.397805794388,1058.200746183027
1533054429.012,1301.5177171625548,1426.2528,955.5241857523064,1337.8204428868983,1066.7585545050888
1533054429.016,1305.3788800185812,1423.3348266666667,957.4831063743451,1334.3868347663285,981.1863127918581
1533054429.02,1307.9534280069115,1413.1264,953.5672701667283,1330.9532266457588,824.3126319120157
1533054429.024,1300.2297840419205,1414.5838933333334,959.4400219599231,1332.096981432679,924.1439931570914
1533054429.0279999,1288.000351534117,1417.5018666666667,964.3363209967896,1324.0860104046194,969.7778488649047
1533054429.032,1284.1378704251524,1413.1264,953.5672701667283,1311.49767646907,778.6729346968153
1533054429.035,1283.4945629913045,1407.29344,955.5241857523064,1317.2211379232892,641.7655260659882
1533054429.039,1282.2066298706702,1407.29344,957.4831063743451,1314.9312845896397,952.6622322207811
1533054429.043,1283.4945629913045,1397.0850133333333,952.5868073374787,1302.3429506540904,755.8560068429086
1533054429.0470002,1287.3557258473309,1394.16704,961.3989425819618,1318.3648927102095,407.877411794977
1533054429.051,1285.4258035457867,1400.0,959.4400219599231,1329.8094718588386,618.9485982120815
1533054429.055,1277.7008413278575,1402.9179733333333,957.4831063743451,1313.7875298027195,784.3800874139855
1533054429.059,1281.563322436822,1407.29344,964.3363209967896,1320.6524022840497,852.8367124830927
1533054429.063,1286.0691109796348,1408.7509333333333,968.2521572044063,1320.6524022840497,915.5861848350296
1533054429.0670002,1286.0691109796348,1411.6689066666668,964.3363209967896,1310.3539216821498,1115.2489073251807
1533054429.071,1286.0691109796348,1404.3754666666666,958.4615641671342,1312.6414312559903,984.0428099041367
1533054429.075,1281.563322436822,1401.46048,955.5241857523064,1293.1882248391107,698.8078457007549
1533054429.0779998,1284.7811778590005,1398.5425066666667,958.4615641671342,1287.4647633848915,1092.426137963887
1533054429.082,1294.4360623784737,1398.5425066666667,959.4400219599231,1303.4867054410106,935.5524570840447
1533054429.086,1290.5748995224474,1394.16704,959.4400219599231,1294.3319796260307,647.4668372757714
1533054429.09,1282.2066298706702,1391.2520533333334,957.4831063743451,1300.0530973204409,564.7510926748192
1533054429.0939999,1286.7124184134827,1398.5425066666667,960.4204847891727,1316.07503937656,644.6161816708798
1533054429.0979998,1287.3557258473309,1395.62752,964.3363209967896,1324.0860104046194,715.9234623448784
1533054429.1020002,1279.63208188234,1386.8765866666668,967.2736994116173,1320.6524022840497,855.6873680879843
1533054429.106,1277.7008413278575,1394.16704,965.3147787895786,1318.3648927102095,998.3019294359816
1533054429.11,1284.1378704251524,1402.9179733333333,957.4831063743451,1330.9532266457588,909.8790321178593
1533054429.1139998,1286.0691109796348,1398.5425066666667,961.3989425819618,1332.096981432679,1046.7922822560736
1533054429.117,1283.4945629913045,1397.0850133333333,964.3363209967896,1303.4867054410106,924.1439931570914
1533054429.121,1282.849937304518,1401.46048,961.3989425819618,1302.3429506540904,984.0428099041367
1533054429.125,1283.4945629913045,1404.3754666666666,966.2932365823676,1326.375863738269,972.6285044697963
1533054429.129,1290.5748995224474,1404.3754666666666,970.2090727899844,1325.2297651915396,1109.5417546080105
1533054429.133,1288.6436589679652,1407.29344,969.2306149971953,1305.77655877466,1175.141882564839
1533054429.137,1277.0575338940096,1401.46048,969.2306149971953,1309.2101668952298,944.1102654061065
1533054429.141,1277.7008413278575,1391.2520533333334,969.2306149971953,1326.375863738269,818.6054791948455
1533054429.145,1280.9200150029742,1394.16704,964.3363209967896,1326.375863738269,912.735529230138
1533054429.149,1280.2753893161878,1395.62752,955.5241857523064,1314.9312845896397,610.3907898900197
1533054429.1529999,1279.63208188234,1394.16704,955.5241857523064,1308.0640683485003,607.534292777741
1533054429.157,1277.7008413278575,1392.7095466666667,963.3578632040005,1312.6414312559903,747.2981985208469
1533054429.16,1277.0575338940096,1395.62752,957.4831063743451,1301.1991958671701,724.4812706669402
1533054429.164,1281.563322436822,1400.0,957.4831063743451,1297.7655877466004,849.980215370814
1533054429.168,1278.9887744484918,1397.0850133333333,964.3363209967896,1313.7875298027195,638.9148704610966
1533054429.1720002,1285.4258035457867,1398.5425066666667,954.5457279595173,1311.49767646907,496.3003091130992
1533054429.176,1287.3557258473309,1408.7509333333333,953.5672701667283,1296.6194891998712,949.8115766158896
1533054429.18,1277.0575338940096,1405.8359466666666,965.3147787895786,1305.77655877466,1100.9839462859488
1533054429.184,1282.2066298706702,1414.5838933333334,971.189535619234,1317.2211379232892,901.3212237957976
1533054429.188,1288.6436589679652,1421.8773333333334,968.2521572044063,1313.7875298027195,678.8474149591268
1533054429.1920002,1291.2182069562955,1410.2084266666666,960.4204847891727,1314.9312845896397,841.4282485561394
1533054429.196,1293.7927549446258,1413.1264,959.4400219599231,1317.2211379232892,949.8115766158896
1533054429.199,1298.9418509212865,1411.6689066666668,963.3578632040005,1327.5196185251891,753.005351238017
1533054429.2029998,1303.447639464099,1411.6689066666668,959.4400219599231,1335.5305895532488,753.005351238017
1533054429.207,1300.2297840419205,1426.2528,950.6298917519006,1314.9312845896397,872.8029847321078
1533054429.211,1296.3673029329561,1411.6689066666668,941.8177565074175,1305.77655877466,892.7692569811229
1533054429.215,1294.4360623784737,1410.2084266666666,947.6925133370729,1322.9422556176994,755.8560068429086
1533054429.2189999,1291.2182069562955,1421.8773333333334,953.5672701667283,1314.9312845896397,798.6392069458304
1533054429.2229998,1295.723995499108,1423.3348266666667,954.5457279595173,1322.9422556176994,909.8790321178593
1533054429.2270002,1301.5177171625548,1418.95936,963.3578632040005,1333.240736219599,832.8704402340776
1533054429.231,1294.4360623784737,1453.9601066666667,959.4400219599231,1322.9422556176994,812.9041679850625
1533054429.235,1284.1378704251524,1523.9586133333332,952.5868073374787,1325.2297651915396,904.1777209080763
1533054429.2389998,1282.849937304518,1541.46048,955.5241857523064,1320.6524022840497,741.5968873110637
1533054429.242,1293.1494475107777,1540.0,956.504648581556,1324.0860104046194,590.4245176410046
1533054429.246,1290.5748995224474,1541.46048,960.4204847891727,1329.8094718588386,832.8704402340776
1533054429.25,1281.563322436822,1537.0850133333333,959.4400219599231,1325.2297651915396,921.2874960448127
1533054429.254,1284.1378704251524,1526.8765866666668,948.6709711298619,1322.9422556176994,781.5294318090939
1533054429.258,1284.1378704251524,1509.3777066666667,941.8177565074175,1309.2101668952298,715.9234623448784
1533054429.262,1279.63208188234,1500.6267733333334,946.7140555442838,1301.1991958671701,527.6750452890677
1533054429.266,1285.4258035457867,1503.54176,953.5672701667283,1310.3539216821498,439.25214797094543
1533054429.27,1294.4360623784737,1505.00224,953.5672701667283,1318.3648927102095,587.5680205287259
1533054429.274,1293.7927549446258,1505.00224,952.5868073374787,1320.6524022840497,598.9823259630664
1533054429.2779999,1289.9315920885992,1506.4597333333334,955.5241857523064,1320.6524022840497,818.6054791948455
1533054429.282,1287.3557258473309,1490.4183466666666,956.504648581556,1314.9312845896397,750.1546956331255
1533054429.285,1286.7124184134827,1477.2919466666667,958.4615641671342,1313.7875298027195,613.2414454949113
1533054429.289,1288.6436589679652,1478.7524266666667,959.4400219599231,1314.9312845896397,795.7885513409389
1533054429.293,1291.8615143901434,1481.6674133333333,954.5457279595173,1301.1991958671701,941.2537682938279
1533054429.2970002,1296.3673029329561,1487.5003733333333,955.5241857523064,1306.92031356158,981.1863127918581
1533054429.301,1298.2985434874383,1477.2919466666667,954.5457279595173,1319.5086474971297,539.0835092160211
1533054429.305,1298.2985434874383,1483.1278933333333,960.4204847891727,1322.9422556176994,596.1258288507877
1533054429.309,1289.9315920885992,1483.1278933333333,964.3363209967896,1324.0860104046194,1300.6466687761
1533054429.313,1292.5061400769296,1472.9194666666667,953.5672701667283,1321.7985008307792,1215.0744270628693
1533054429.3170002,1299.5864766080726,1467.08352,953.5672701667283,1322.9422556176994,559.0497814650362
1533054429.321,1290.5748995224474,1461.25056,961.3989425819618,1322.9422556176994,818.6054791948455
1533054429.324,1290.5748995224474,1459.7930666666666,959.4400219599231,1325.2297651915396,1143.7671463888705
1533054429.3279998,1295.08068806526,1462.71104,956.504648581556,1329.8094718588386,1143.7671463888705
1533054429.332,1293.7927549446258,1478.7524266666667,961.3989425819618,1326.375863738269,1246.4491632388376
1533054429.336,1295.08068806526,1486.04288,961.3989425819618,1321.7985008307792,1280.6803965270847
1533054429.34,1296.3673029329561,1472.9194666666667,953.5672701667283,1328.6633733121093,1089.5754823589955
1533054429.3439999,1296.3673029329561,1464.1685333333332,952.5868073374787,1326.375863738269,966.9271932600132
1533054429.3479998,1300.8730914757687,1461.25056,958.4615641671342,1327.5196185251891,1001.1525850408732
1533054429.3520002,1291.8615143901434,1461.25056,963.3578632040005,1330.9532266457588,952.6622322207811
1533054429.356,1286.7124184134827,1465.6260266666666,961.3989425819618,1327.5196185251891,1026.8260100070586
1533054429.36,1297.0119286197423,1456.8750933333333,963.3578632040005,1336.6743443401688,1135.2093380668089
1533054429.3639998,1299.5864766080726,1446.6666666666667,967.2736994116173,1344.6853153682284,861.3945208051545
1533054429.367,1304.0922651508852,1449.58464,968.2521572044063,1343.5415605813082,376.5026756190085
1533054429.371,1303.447639464099,1461.25056,968.2521572044063,1340.1079524607385,693.1065344909717
1533054429.375,1295.723995499108,1467.08352,965.3147787895786,1330.9532266457588,915.5861848350296
1533054429.379,1295.08068806526,1456.8750933333333,965.3147787895786,1336.6743443401688,807.1970152678922
1533054429.383,1291.8615143901434,1452.5026133333333,963.3578632040005,1335.5305895532488,767.264470769862
1533054429.387,1295.723995499108,1461.25056,962.3774003747509,1322.9422556176994,1092.426137963887
1533054429.391,1298.9418509212865,1465.6260266666666,961.3989425819618,1324.0860104046194,861.3945208051545
1533054429.395,1293.7927549446258,1462.71104,960.4204847891727,1330.9532266457588,462.0690758248521
