timestamps,TP9,AF7,AF8,TP10,Right AUX
1533059895.603,487.74631138515747,1447.226518355483,617.9992539442213,266.8543629023912,1041.3718806547995
1533059895.607,662.3686412684431,1429.0118783835135,636.001141026485,315.3835006728082,759.4512477380802
1533059895.611,957.4261175952433,1439.130662218647,624.0080749566629,357.8263119759859,929.1798173631275
1533059895.615,843.0090288482713,1459.3723752325586,533.9986395453449,315.3835006728082,1216.8505660059757
1533059895.619,626.2356309183,1475.5640875062304,504.00368639325916,309.3095952799917,1124.7956907797836
1533059895.623,343.2266020700286,1457.3494475342607,588.0043007921357,272.92826829520754,770.9573707023524
1533059895.627,325.16009689495706,1424.9618776432735,648.0064950738375,194.07928785839974,822.7378697975845
1533059895.631,758.7068927548999,1435.0848068220512,720.0017554253615,285.0512369319946,1021.2346925893195
1533059895.635,830.9729134551861,1455.3223744923189,774.0074166721523,388.1585757167995,1213.9696166308968
1533059895.639,638.2840783968289,1453.299446794021,672.0049151910122,339.6418590208053,1035.615873416656
1533059895.6420002,421.51068046685754,1455.3223744923189,588.0043007921357,230.47303591760686,1024.1097504523839
1533059895.6460001,439.56485355648533,1445.203590657185,582.0077677572247,218.33764620639684,768.082312839288
1533059895.65,818.9244659766571,1433.0577337801092,594.0008338270467,345.70334333919885,722.0519294701847
1533059895.654,861.0755340233429,1418.8889492047356,575.9989467447831,418.47841838319016,1064.384126583344
1533059895.658,656.3505835719004,1414.8430938081397,540.0074605577864,442.73677673118726,1052.8780036190717
1533059895.6620002,499.78242677824267,1429.0118783835135,462.0033791938209,400.28154435358664,926.2988679880486
1533059895.6660001,475.69786390662847,1420.9160222466776,486.0017993109955,321.44498499120175,1026.9848083154484
1533059895.67,788.8218454085003,1416.8660215064376,528.0021065104338,321.44498499120175,871.6433110297521
1533059895.674,867.0935917198855,1435.0848068220512,486.0017993109955,388.1585757167995,955.0671211547364
1533059895.678,722.5862144902004,1449.253591397425,402.001184912119,400.28154435358664,920.5487522619198
1533059895.6820002,590.1026205681568,1475.5640875062304,432.0084260417352,351.7648276575924,768.082312839288
1533059895.685,511.8308742567716,1483.659943643066,504.00368639325916,363.9002173688024,655.890249547616
1533059895.689,788.8218454085003,1475.5640875062304,575.9989467447831,376.0231860055895,635.7530614821361
1533059895.6929998,843.0090288482713,1473.5411598079324,617.9992539442213,388.1585757167995,1127.6707486428481
1533059895.697,656.3505835719004,1481.6370159447683,575.9989467447831,460.9336507607908,1001.0975045238396
1533059895.701,505.80048447478526,1471.5182321096345,528.0021065104338,436.6752924127937,932.0548752261919
1533059895.705,409.46223298832854,1463.4223759727986,491.9983323459066,394.220060035193,969.4541934940875
1533059895.7089999,668.3866989649857,1477.5870152045284,474.0087332411735,448.81068212400373,742.1891175356646
1533059895.7129998,806.8883505835719,1471.5182321096345,486.0017993109955,454.87216644239726,632.8780036190717
1533059895.717,620.2175732217573,1465.4453036710966,504.00368639325916,382.09709139840595,773.8324285654169
1533059895.721,433.54679585994273,1469.4911590676925,510.00021942817017,339.6418590208053,819.8628119345201
1533059895.725,307.09359171988547,1471.5182321096345,491.9983323459066,309.3095952799917,932.0548752261919
1533059895.728,553.9819423034573,1459.3723752325586,516.0090404406118,297.18662664320465,926.2988679880486
1533059895.732,782.791455626514,1459.3723752325586,617.9992539442213,357.8263119759859,693.2895678155115
1533059895.736,722.5862144902004,1461.3953029308566,630.004607991574,369.96170168719595,989.5854900475529
1533059895.74,566.0180576965427,1455.3223744923189,575.9989467447831,303.2481109615982,848.6310651012078
1533059895.744,355.26271746311386,1443.180662958887,600.0096548394883,248.6574888727875,903.2866220595042
1533059895.748,523.8669896498568,1439.130662218647,654.0030281087486,291.11272125038806,1127.6707486428481
1533059895.752,770.7553402334288,1429.0118783835135,678.0014482259232,382.09709139840595,1035.615873416656
1533059895.756,686.4532041400572,1416.8660215064376,690.0068022732759,382.09709139840595,1101.7775533392248
1533059895.76,596.1330103501432,1433.0577337801092,642.0099620389266,382.09709139840595,1078.7653074106804
1533059895.764,457.63135873155693,1437.1077345203491,552.0005266276085,442.73677673118726,1159.3140596726003
1533059895.7670002,638.2840783968289,1437.1077345203491,528.0021065104338,491.2659145016044,1084.5213146488238
1533059895.7710001,981.5106804668575,1459.3723752325586,540.0074605577864,533.7211468792051,1262.8750578630645
1533059895.775,843.0090288482713,1449.253591397425,533.9986395453449,545.8441155159921,1121.9147414047047
1533059895.779,620.2175732217573,1429.0118783835135,588.0043007921357,515.5242728496015,989.5854900475529
1533059895.783,463.6494164280995,1418.8889492047356,612.0027209093104,515.5242728496015,805.475739595169
1533059895.7870002,578.0665051750716,1437.1077345203491,617.9992539442213,503.38888313839146,428.63106510120775
1533059895.7910001,873.1239815018719,1467.4682313693945,624.0080749566629,491.2659145016044,946.4360560535285
1533059895.795,879.1420391984144,1465.4453036710966,600.0096548394883,533.7211468792051,1024.1097504523839
1533059895.799,740.6403875798283,1465.4453036710966,612.0027209093104,509.450367456785,615.6158734166562
1533059895.803,481.7159216031711,1463.4223759727986,642.0099620389266,406.355449746403,494.79274502377643
1533059895.8070002,517.8489319533143,1461.3953029308566,683.9979812608343,376.0231860055895,445.8873037916088
1533059895.81,867.0935917198855,1475.5640875062304,780.0039497070634,454.87216644239726,333.69524049993686
1533059895.814,879.1420391984144,1477.5870152045284,774.0074166721523,491.2659145016044,730.6829945713926
1533059895.8179998,656.3505835719004,1457.3494475342607,725.9982884602725,467.0075561536073,934.9299330892565
1533059895.822,385.3776701167144,1433.0577337801092,683.9979812608343,412.4169340647966,745.0700669107435
1533059895.826,391.395727813257,1433.0577337801092,642.0099620389266,363.9002173688024,851.5061229642722
1533059895.83,728.6042721867431,1443.180662958887,659.9995611436597,345.70334333919885,1058.6281193452005
1533059895.8339999,776.7733979299713,1420.9160222466776,630.004607991574,369.96170168719595,773.8324285654169
1533059895.8379998,620.2175732217573,1426.9848053415715,558.00934764005,400.28154435358664,730.6829945713926
1533059895.842,433.54679585994273,1437.1077345203491,449.9980251464683,315.3835006728082,992.4664394226319
1533059895.846,421.51068046685754,1414.8430938081397,402.001184912119,285.0512369319946,883.1494339940243
1533059895.85,692.4712618365999,1416.8660215064376,462.0033791938209,333.5679536279888,773.8324285654169
1533059895.853,758.7068927548999,1435.0848068220512,480.0052662760845,388.1585757167995,468.9054412321677
1533059895.857,650.3201937899141,1437.1077345203491,546.0039935926974,400.28154435358664,546.5732441190086
1533059895.861,505.80048447478526,1429.0118783835135,617.9992539442213,406.355449746403,934.9299330892565
1533059895.865,463.6494164280995,1422.9389499449755,606.0061878743993,412.4169340647966,943.5609981904641
1533059895.869,770.7553402334288,1443.180662958887,575.9989467447831,394.220060035193,1026.9848083154484
1533059895.873,915.2750495485576,1457.3494475342607,528.0021065104338,388.1585757167995,1257.1249421369355
1533059895.877,752.6888350583572,1449.253591397425,552.0005266276085,339.6418590208053,1291.643311029752
1533059895.881,475.69786390662847,1447.226518355483,612.0027209093104,260.7928785839975,929.1798173631275
1533059895.885,349.24465976657126,1451.276519095723,582.0077677572247,212.27616188800332,914.7927450237764
1533059895.889,626.2356309183,1453.299446794021,546.0039935926974,181.94389814718974,1124.7956907797836
1533059895.8920002,752.6888350583572,1445.203590657185,564.0058806749611,266.8543629023912,1098.9024954761603
1533059895.8960001,596.1330103501432,1443.180662958887,498.00715335834815,291.11272125038806,788.2195009047679
1533059895.9,463.6494164280995,1453.299446794021,432.0084260417352,188.0178035400062,946.4360560535285
1533059895.904,349.24465976657126,1449.253591397425,306.00750444342043,194.07928785839974,1222.6006817321045
1533059895.908,596.1330103501432,1447.226518355483,276.0002633138042,230.47303591760686,891.7804990952321
1533059895.9120002,867.0935917198855,1463.4223759727986,444.0014921115573,303.2481109615982,906.1616799225687
1533059895.9160001,728.6042721867431,1465.4453036710966,449.9980251464683,357.8263119759859,1035.615873416656
1533059895.92,590.1026205681568,1461.3953029308566,396.004651877208,339.6418590208053,1098.9024954761603
1533059895.924,499.78242677824267,1463.4223759727986,378.00276479494437,369.96170168719595,1052.8780036190717
1533059895.928,656.3505835719004,1469.4911590676925,341.99899063041715,376.0231860055895,1251.3689348987923
1533059895.9320002,873.1239815018719,1455.3223744923189,294.00215039606786,382.09709139840595,1205.3444430417035
1533059895.935,794.8399031050429,1437.1077345203491,258.01066420907114,400.28154435358664,932.0548752261919
1533059895.939,620.2175732217573,1441.153589916945,233.99995611436597,369.96170168719595,863.0122459285444
1533059895.9429998,427.52873816340013,1437.1077345203491,246.00531016171857,357.8263119759859,1052.8780036190717
1533059895.947,608.1691257432284,1461.3953029308566,276.0002633138042,412.4169340647966,1406.7104321844886
1533059895.951,987.5287381634001,1483.659943643066,288.00561736115685,491.2659145016044,1067.2591844464082
1533059895.955,885.1600968949571,1481.6370159447683,312.00403747833144,436.6752924127937,891.7804990952321
1533059895.9589999,656.3505835719004,1485.687016685008,330.0059245605951,363.9002173688024,837.1249421369356
1533059895.9629998,439.56485355648533,1473.5411598079324,228.00342307945493,345.70334333919885,1124.7956907797836
1533059895.967,517.8489319533143,1467.4682313693945,78.00408136396551,315.3835006728082,1012.6036274881118
1533059895.971,867.0935917198855,1483.659943643066,102.00250148114011,327.5064693095953,497.6678028868409
1533059895.975,843.0090288482713,1495.805800520142,174.01004981019463,369.96170168719595,883.1494339940243
1533059895.978,596.1330103501432,1485.687016685008,222.00689004454392,351.7648276575924,871.6433110297521
1533059895.982,373.3292226381854,1479.6140882464704,258.01066420907114,291.11272125038806,532.192063291672
1533059895.986,403.44417529178594,1465.4453036710966,282.0090843262458,272.92826829520754,788.2195009047679
1533059895.99,704.5197093151288,1469.4911590676925,341.99899063041715,303.2481109615982,739.3140596726003
1533059895.994,734.6223298832856,1493.782872821844,378.00276479494437,376.0231860055895,949.3170054286074
1533059895.998,590.1026205681568,1489.732872081604,318.0005705132425,351.7648276575924,762.3263056011447
1533059896.002,409.46223298832854,1487.709944383306,294.00215039606786,242.59600455439394,535.0671211547364
1533059896.006,409.46223298832854,1501.8787289586799,330.0059245605951,248.6574888727875,983.8353743214241
1533059896.01,788.8218454085003,1485.687016685008,348.0078116428587,278.98975261360107,819.8628119345201
1533059896.014,885.1600968949571,1471.5182321096345,354.0043446777697,327.5064693095953,512.0548752261919
1533059896.0170002,686.4532041400572,1477.5870152045284,348.0078116428587,394.220060035193,687.5335605773681
1533059896.0210001,553.9819423034573,1479.6140882464704,420.00307199438265,460.9336507607908,1064.384126583344
1533059896.025,553.9819423034573,1491.755799779902,528.0021065104338,521.585757167995,1165.0700669107437
1533059896.029,861.0755340233429,1503.9016566569778,564.0058806749611,564.0409895455957,972.3292513571519
1533059896.033,981.5106804668575,1489.732872081604,504.00368639325916,618.6316116344063,1142.0519294701846
1533059896.0370002,818.9244659766571,1473.5411598079324,486.0017993109955,557.9795052272021,762.3263056011447
1533059896.0410001,626.2356309183,1477.5870152045284,516.0090404406118,503.38888313839146,601.2346925893195
1533059896.045,535.9154371283859,1465.4453036710966,612.0027209093104,539.7826311975986,799.7256238690401
1533059896.049,830.9729134551861,1457.3494475342607,774.0074166721523,527.6472414863886,575.3414972856963
1533059896.053,939.3596124201717,1489.732872081604,875.997630175762,539.7826311975986,575.3414972856963
1533059896.0570002,734.6223298832856,1493.782872821844,875.997630175762,551.9055998343857,1127.6707486428481
1533059896.06,547.9515525214711,1479.6140882464704,828.0007899414127,527.6472414863886,932.0548752261919
1533059896.064,451.61330103501433,1481.6370159447683,792.009303754416,527.6472414863886,532.192063291672
1533059896.0679998,626.2356309183,1473.5411598079324,822.0042569065016,533.7211468792051,998.2165551487607
1533059896.072,752.6888350583572,1469.4911590676925,882.0064511882035,485.1920091087879,1418.2165551487608
1533059896.076,680.4351464435147,1449.253591397425,792.009303754416,430.61380809440016,1610.9573707023524
1533059896.08,505.80048447478526,1453.299446794021,654.0030281087486,424.55232377600663,1311.780499095232
1533059896.0839999,307.09359171988547,1475.5640875062304,654.0030281087486,376.0231860055895,909.0426292976476
1533059896.0879998,529.8973794318432,1487.709944383306,666.0083821561012,345.70334333919885,773.8324285654169
1533059896.092,836.9909711517287,1499.855801260382,654.0030281087486,454.87216644239726,612.7408155535917
1533059896.096,776.7733979299713,1501.8787289586799,594.0008338270467,533.7211468792051,854.3811808273366
1533059896.099,668.3866989649857,1520.0933689306494,552.0005266276085,551.9055998343857,886.0244918570887
1533059896.103,578.0665051750716,1532.2392258077252,516.0090404406118,564.0409895455957,681.7775533392248
1533059896.107,740.6403875798283,1499.855801260382,425.99960502929366,533.7211468792051,486.1616799225687
1533059896.111,1047.7463113851575,1497.82872821844,425.99960502929366,570.1024738639892,581.0975045238396
1533059896.115,1011.6133010350143,1528.1892250674853,449.9980251464683,624.6930959527999,837.1249421369356
1533059896.119,782.791455626514,1526.1662973691873,491.9983323459066,582.2378635751993,612.7408155535917
1533059896.123,560.0,1509.9745850955155,480.0052662760845,497.32739881999794,615.6158734166562
1533059896.127,662.3686412684431,1495.805800520142,486.0017993109955,521.585757167995,822.7378697975845
1533059896.131,927.3111649416428,1479.6140882464704,516.0090404406118,515.5242728496015,926.2988679880486
1533059896.135,921.2931072451001,1483.659943643066,516.0090404406118,503.38888313839146,1110.4086184404325
1533059896.139,843.0090288482713,1493.782872821844,606.0061878743993,600.4347376048028,1081.6462567857593
1533059896.1420002,632.2536886148425,1471.5182321096345,678.0014482259232,570.1024738639892,1104.6585027143037
1533059896.1460001,698.4893195331425,1457.3494475342607,666.0083821561012,467.0075561536073,1133.4267558809915
1533059896.15,1023.6617485135432,1467.4682313693945,612.0027209093104,448.81068212400373,1268.6310651012077
1533059896.154,1005.5952433384717,1481.6370159447683,564.0058806749611,485.1920091087879,966.5732441190086
1533059896.158,818.9244659766571,1481.6370159447683,606.0061878743993,509.450367456785,952.192063291672
1533059896.1620002,553.9819423034573,1475.5640875062304,683.9979812608343,442.73677673118726,1055.753061482136
1533059896.1660001,541.9334948249284,1461.3953029308566,725.9982884602725,394.220060035193,791.0945587678324
1533059896.17,885.1600968949571,1461.3953029308566,714.0052223904505,418.47841838319016,779.5884358035602
1533059896.174,933.3292226381855,1467.4682313693945,725.9982884602725,442.73677673118726,868.7682531666877
1533059896.178,794.8399031050429,1457.3494475342607,732.0071094727141,485.1920091087879,1078.7653074106804
1533059896.1820002,608.1691257432284,1443.180662958887,672.0049151910122,412.4169340647966,966.5732441190086
1533059896.185,499.78242677824267,1443.180662958887,617.9992539442213,291.11272125038806,934.9299330892565
1533059896.189,812.9064082801145,1441.153589916945,648.0064950738375,321.44498499120175,1127.6707486428481
1533059896.1929998,903.2266020700287,1445.203590657185,683.9979812608343,382.09709139840595,1044.246938517864
1533059896.197,704.5197093151288,1455.3223744923189,672.0049151910122,388.1585757167995,1075.8902495476161
1533059896.201,511.8308742567716,1437.1077345203491,648.0064950738375,327.5064693095953,1104.6585027143037
1533059896.205,427.52873816340013,1429.0118783835135,558.00934764005,242.59600455439394,1044.246938517864
1533059896.2089999,722.5862144902004,1435.0848068220512,540.0074605577864,272.92826829520754,629.9970542439928
1533059896.2129998,800.8579608015856,1443.180662958887,564.0058806749611,339.6418590208053,816.9877540714556
1533059896.217,590.1026205681568,1441.153589916945,533.9986395453449,333.5679536279888,1176.5761898750159
1533059896.221,457.63135873155693,1451.276519095723,510.00021942817017,321.44498499120175,770.9573707023524
1533059896.224,337.208544373486,1453.299446794021,546.0039935926974,321.44498499120175,535.0671211547364
1533059896.228,620.2175732217573,1459.3723752325586,570.002413709872,333.5679536279888,891.7804990952321
1533059896.232,824.9425236731997,1473.5411598079324,474.0087332411735,327.5064693095953,932.0548752261919
1533059896.236,662.3686412684431,1469.4911590676925,438.0049590766463,291.11272125038806,471.7804990952321
1533059896.24,493.76436908170007,1479.6140882464704,449.9980251464683,266.8543629023912,733.558052434457
1533059896.244,373.3292226381854,1473.5411598079324,402.001184912119,291.11272125038806,900.4115641964398
1533059896.248,686.4532041400572,1455.3223744923189,432.0084260417352,345.70334333919885,676.027437613096
1533059896.252,993.5467958599428,1465.4453036710966,408.0100059245606,363.9002173688024,701.9147414047048
1533059896.256,861.0755340233429,1469.4911590676925,348.0078116428587,369.96170168719595,802.6006817321045
1533059896.26,644.3021360933715,1467.4682313693945,372.00623176003336,309.3095952799917,676.027437613096
1533059896.264,511.8308742567716,1467.4682313693945,372.00623176003336,291.11272125038806,707.6707486428481
1533059896.2670002,686.4532041400572,1455.3223744923189,366.00969872512235,363.9002173688024,831.3689348987922
1533059896.2710001,903.2266020700287,1443.180662958887,348.0078116428587,424.55232377600663,773.8324285654169
1533059896.275,788.8218454085003,1443.180662958887,354.0043446777697,442.73677673118726,710.5458065059125
1533059896.279,614.1995155252147,1459.3723752325586,372.00623176003336,357.8263119759859,860.1371880654799
1533059896.283,415.4802906848712,1461.3953029308566,306.00750444342043,345.70334333919885,1098.9024954761603
1533059896.2870002,566.0180576965427,1465.4453036710966,312.00403747833144,418.47841838319016,1003.972562386904
1533059896.2910001,879.1420391984144,1475.5640875062304,414.00653895947164,454.87216644239726,1144.9328788452638
1533059896.295,812.9064082801145,1459.3723752325586,462.0033791938209,467.0075561536073,983.8353743214241
1533059896.299,656.3505835719004,1447.226518355483,491.9983323459066,382.09709139840595,650.1342423094727
1533059896.303,481.7159216031711,1457.3494475342607,491.9983323459066,357.8263119759859,805.475739595169
1533059896.3070002,523.8669896498568,1463.4223759727986,449.9980251464683,382.09709139840595,1018.3537432142406
1533059896.31,836.9909711517287,1465.4453036710966,467.99991222873194,376.0231860055895,1142.0519294701846
1533059896.314,855.0574763268003,1475.5640875062304,510.00021942817017,351.7648276575924,1121.9147414047047
1533059896.3179998,632.2536886148425,1471.5182321096345,498.00715335834815,285.0512369319946,1153.5639439464715
1533059896.322,385.3776701167144,1455.3223744923189,456.00684615890987,242.59600455439394,952.192063291672
1533059896.326,439.56485355648533,1447.226518355483,462.0033791938209,254.73139426560397,601.2346925893195
1533059896.33,770.7553402334288,1461.3953029308566,546.0039935926974,272.92826829520754,618.4909312797206
1533059896.3339999,794.8399031050429,1481.6370159447683,606.0061878743993,303.2481109615982,808.3566889702479
1533059896.3379998,710.5377670116715,1481.6370159447683,617.9992539442213,339.6418590208053,1119.0396835416404
1533059896.342,547.9515525214711,1467.4682313693945,528.0021065104338,345.70334333919885,986.7104321844885
1533059896.346,493.76436908170007,1457.3494475342607,383.9992978298554,351.7648276575924,963.6981862559442
1533059896.349,873.1239815018719,1467.4682313693945,390.008118842297,345.70334333919885,845.7501157261289
1533059896.353,939.3596124201717,1463.4223759727986,449.9980251464683,345.70334333919885,842.8750578630644
1533059896.357,758.7068927548999,1463.4223759727986,462.0033791938209,357.8263119759859,687.5335605773681
1533059896.361,638.2840783968289,1471.5182321096345,491.9983323459066,357.8263119759859,1087.3963725118883
1533059896.365,566.0180576965427,1445.203590657185,449.9980251464683,339.6418590208053,1481.5090687202794
1533059896.369,843.0090288482713,1431.0348060818112,432.0084260417352,272.92826829520754,1018.3537432142406
1533059896.373,945.3776701167144,1433.0577337801092,462.0033791938209,278.98975261360107,831.3689348987922
1533059896.377,764.7372825368861,1435.0848068220512,444.0014921115573,315.3835006728082,1078.7653074106804
1533059896.381,596.1330103501432,1439.130662218647,462.0033791938209,291.11272125038806,1170.8201826368725
1533059896.385,481.7159216031711,1443.180662958887,390.008118842297,272.92826829520754,1159.3140596726003
1533059896.389,800.8579608015856,1469.4911590676925,425.99960502929366,339.6418590208053,886.0244918570887
1533059896.3920002,987.5287381634001,1491.755799779902,594.0008338270467,442.73677673118726,581.0975045238396
1533059896.3960001,873.1239815018719,1487.709944383306,594.0008338270467,448.81068212400373,802.6006817321045
1533059896.4,716.555824708214,1481.6370159447683,558.00934764005,436.6752924127937,1084.5213146488238
1533059896.404,590.1026205681568,1473.5411598079324,552.0005266276085,406.355449746403,1130.5458065059127
1533059896.408,879.1420391984144,1465.4453036710966,624.0080749566629,394.220060035193,865.8873037916088
1533059896.4120002,1089.8973794318433,1457.3494475342607,659.9995611436597,412.4169340647966,932.0548752261919
1533059896.4160001,969.4622329883285,1473.5411598079324,659.9995611436597,376.0231860055895,1058.6281193452005
1533059896.42,800.8579608015856,1501.8787289586799,666.0083821561012,339.6418590208053,980.9603164583597
1533059896.424,626.2356309183,1501.8787289586799,642.0099620389266,309.3095952799917,1018.3537432142406
1533059896.428,812.9064082801145,1493.782872821844,648.0064950738375,297.18662664320465,969.4541934940875
1533059896.4320002,1053.7643690817001,1493.782872821844,708.0086893555394,376.0231860055895,934.9299330892565
1533059896.435,981.5106804668575,1487.709944383306,828.0007899414127,430.61380809440016,1052.8780036190717
1533059896.439,788.8218454085003,1473.5411598079324,906.0048713053782,363.9002173688024,722.0519294701847
1533059896.4429998,578.0665051750716,1467.4682313693945,912.0014043402892,333.5679536279888,443.01224592854436
1533059896.447,722.5862144902004,1487.709944383306,870.0010971408509,394.220060035193,408.4938770357278
1533059896.451,1041.7282536886148,1497.82872821844,906.0048713053782,436.6752924127937,589.7226781130329
1533059896.455,975.4802906848712,1483.659943643066,978.0001316569021,436.6752924127937,891.7804990952321
1533059896.4589999,806.8883505835719,1471.5182321096345,930.0032914225528,400.28154435358664,589.7226781130329
1533059896.4629998,602.1510680466857,1455.3223744923189,882.0064511882035,303.2481109615982,500.5487522619198
1533059896.467,638.2840783968289,1467.4682313693945,930.0032914225528,333.5679536279888,776.7133779404958
1533059896.471,951.3957278132569,1475.5640875062304,930.0032914225528,436.6752924127937,1044.246938517864
1533059896.474,915.2750495485576,1449.253591397425,882.0064511882035,454.87216644239726,1283.0122459285444
1533059896.478,746.6707773618145,1455.3223744923189,846.0026770236763,448.81068212400373,969.4541934940875
1533059896.482,566.0180576965427,1463.4223759727986,809.9989028591491,394.220060035193,802.6006817321045
1533059896.486,590.1026205681568,1418.8889492047356,840.0061439887653,363.9002173688024,727.807936708328
1533059896.49,891.1781545914997,1378.4096685205564,924.0067583876418,382.09709139840595,805.475739595169
1533059896.494,867.0935917198855,1356.1450278083469,984.0089526693437,430.61380809440016,1124.7956907797836
1533059896.498,686.4532041400572,1331.8533140541954,893.9995172580255,436.6752924127937,1012.6036274881118
1533059896.502,541.9334948249284,1275.1781757527006,828.0007899414127,418.47841838319016,451.6433110297521
1533059896.506,614.1995155252147,1188.1425406021606,858.0080310710289,424.55232377600663,845.7501157261289
1533059896.51,945.3776701167144,1026.217127178156,720.0017554253615,436.6752924127937,1389.4541934940873
1533059896.514,957.4261175952433,718.5538672601746,642.0099620389266,576.1763792568057,868.7682531666877
1533059896.5170002,746.6707773618145,374.4571820546101,756.0055295898887,576.1763792568057,903.2866220595042
1533059896.5210001,547.9515525214711,157.87955802740862,732.0071094727141,454.87216644239726,1320.41156419644
1533059896.525,469.67980621008587,24.291713754151512,636.001141026485,430.61380809440016,963.6981862559442
1533059896.529,770.7553402334288,0.0,714.0052223904505,460.9336507607908,816.9877540714556
1533059896.533,879.1420391984144,240.8693377813526,714.0052223904505,521.585757167995,1038.4909312797206
1533059896.5370002,692.4712618365999,611.2765190957227,522.0055734755227,497.32739881999794,1236.9877540714556
1533059896.5410001,523.8669896498568,927.0356351505401,474.0087332411735,406.355449746403,929.1798173631275
1533059896.545,493.76436908170007,1151.7091153145773,636.001141026485,315.3835006728082,730.6829945713926
1533059896.549,836.9909711517287,1309.588673341986,720.0017554253615,357.8263119759859,1104.6585027143037
1533059896.553,999.5771856419291,1402.697236931064,762.0020626247998,394.220060035193,1288.7682531666876
1533059896.556,824.9425236731997,1459.3723752325586,750.0089965549778,406.355449746403,1147.807936708328
1533059896.56,596.1330103501432,1501.8787289586799,606.0061878743993,400.28154435358664,883.1494339940243
1533059896.564,457.63135873155693,1540.335081944561,540.0074605577864,345.70334333919885,934.9299330892565
1533059896.5679998,716.555824708214,1582.8414356706821,600.0096548394883,369.96170168719595,1081.6462567857593
1533059896.572,921.2931072451001,1615.2290055616693,683.9979812608343,424.55232377600663,1081.6462567857593
1533059896.576,716.555824708214,1635.466573231937,648.0064950738375,400.28154435358664,952.192063291672
1533059896.58,463.6494164280995,1655.7082862458485,600.0096548394883,363.9002173688024,934.9299330892565
1533059896.5839999,361.2931072451002,1663.8041423826844,636.001141026485,327.5064693095953,983.8353743214241
1533059896.5879998,590.1026205681568,1661.7812146843864,732.0071094727141,327.5064693095953,989.5854900475529
1533059896.592,794.8399031050429,1669.877070821222,851.9992100585873,436.6752924127937,957.9421790178008
1533059896.596,728.6042721867431,1680.0,864.00456410594,491.2659145016044,995.3414972856963
1533059896.599,584.0845628716141,1667.8541431229241,714.0052223904505,442.73677673118726,966.5732441190086
1533059896.603,331.17815459149966,1657.7312139441465,594.0008338270467,424.55232377600663,1049.9970542439928
1533059896.607,439.56485355648533,1657.7312139441465,588.0043007921357,430.61380809440016,779.5884358035602
1533059896.611,812.9064082801145,1657.7312139441465,666.0083821561012,460.9336507607908,719.1768716071203
1533059896.615,830.9729134551861,1667.8541431229241,762.0020626247998,503.38888313839146,690.4086184404326
1533059896.619,602.1510680466857,1661.7812146843864,714.0052223904505,442.73677673118726,612.7408155535917
1533059896.623,349.24465976657126,1659.7582869860885,588.0043007921357,321.44498499120175,799.7256238690401
1533059896.627,493.76436908170007,1667.8541431229241,606.0061878743993,321.44498499120175,819.8628119345201
1533059896.631,836.9909711517287,1661.7812146843864,696.0033353081868,357.8263119759859,934.9299330892565
1533059896.635,770.7553402334288,1647.6124301090126,744.0001755425361,315.3835006728082,1078.7653074106804
1533059896.639,566.0180576965427,1643.5665747124167,750.0089965549778,272.92826829520754,883.1494339940243
1533059896.6420002,379.35961242017174,1651.6624308492526,701.9998683430979,272.92826829520754,865.8873037916088
1533059896.6460001,439.56485355648533,1643.5665747124167,654.0030281087486,242.59600455439394,1093.1523797500315
1533059896.65,764.7372825368861,1631.420717835341,666.0083821561012,254.73139426560397,684.6585027143037
1533059896.654,728.6042721867431,1625.3477893968031,690.0068022732759,303.2481109615982,457.39342675588097
1533059896.658,511.8308742567716,1621.2977886565632,636.001141026485,224.3991305247904,854.3811808273366
1533059896.6620002,295.05747632680027,1641.5395016704747,624.0080749566629,163.74702411758616,1144.9328788452638
1533059896.6660001,367.3111649416428,1651.6624308492526,696.0033353081868,206.20225649518684,929.1798173631275
1533059896.67,740.6403875798283,1657.7312139441465,786.0004827419745,260.7928785839975,874.5183688928165
1533059896.674,843.0090288482713,1671.89999851952,864.00456410594,382.09709139840595,923.4238101249842
1533059896.678,656.3505835719004,1657.7312139441465,851.9992100585873,448.81068212400373,727.807936708328
1533059896.681,361.2931072451002,1639.516573972177,767.9985956597108,327.5064693095953,736.4390018095359
1533059896.685,337.208544373486,1621.2977886565632,714.0052223904505,333.5679536279888,825.6129276606489
1533059896.689,686.4532041400572,1613.2019325197275,701.9998683430979,412.4169340647966,816.9877540714556
1533059896.6929998,836.9909711517287,1643.5665747124167,672.0049151910122,430.61380809440016,678.9024954761604
1533059896.697,674.4047566615283,1643.5665747124167,612.0027209093104,400.28154435358664,716.3018137440558
1533059896.701,409.46223298832854,1613.2019325197275,630.004607991574,309.3095952799917,733.558052434457
1533059896.705,355.26271746311386,1607.1290040811896,738.0036425076252,345.70334333919885,934.9299330892565
1533059896.7089999,770.7553402334288,1607.1290040811896,780.0039497070634,503.38888313839146,1009.7226781130329
1533059896.7129998,933.3292226381855,1619.2748609582652,725.9982884602725,503.38888313839146,837.1249421369356
1533059896.717,746.6707773618145,1635.466573231937,648.0064950738375,418.47841838319016,1015.4786853511762
1533059896.721,584.0845628716141,1629.397790137043,630.004607991574,442.73677673118726,943.5609981904641
1533059896.724,493.76436908170007,1605.1060763828916,600.0096548394883,388.1585757167995,863.0122459285444
1533059896.728,740.6403875798283,1597.0102202460557,612.0027209093104,351.7648276575924,719.1768716071203
1533059896.732,933.3292226381855,1603.0831486845937,708.0086893555394,400.28154435358664,943.5609981904641
1533059896.736,873.1239815018719,1605.1060763828916,666.0083821561012,388.1585757167995,1320.41156419644
1533059896.74,686.4532041400572,1594.9872925477578,510.00021942817017,315.3835006728082,707.6707486428481
1533059896.744,433.54679585994273,1570.6955787936063,456.00684615890987,254.73139426560397,716.3018137440558
1533059896.748,632.2536886148425,1566.6497233970103,474.0087332411735,333.5679536279888,814.1068046963767
1533059896.752,836.9909711517287,1586.891436410922,474.0087332411735,412.4169340647966,978.0793670832808
1533059896.756,698.4893195331425,1601.0602209862957,558.00934764005,400.28154435358664,1182.3263056011447
1533059896.76,505.80048447478526,1607.1290040811896,690.0068022732759,351.7648276575924,1121.9147414047047
1533059896.764,331.17815459149966,1601.0602209862957,732.0071094727141,278.98975261360107,1104.6585027143037
1533059896.7670002,547.9515525214711,1586.891436410922,744.0001755425361,303.2481109615982,888.9054412321676
1533059896.7710001,879.1420391984144,1576.7685072321442,774.0074166721523,454.87216644239726,742.1891175356646
1533059896.775,836.9909711517287,1564.6267956987124,678.0014482259232,606.4962219231963,650.1342423094727
1533059896.779,698.4893195331425,1562.5997226567704,570.002413709872,606.4962219231963,632.8780036190717
1533059896.783,566.0180576965427,1558.5538672601747,600.0096548394883,588.2993478935928,972.3292513571519
1533059896.7870002,728.6042721867431,1566.6497233970103,636.001141026485,642.8899699824035,1268.6310651012077
1533059896.7910001,1035.6978639066285,1576.7685072321442,666.0083821561012,691.4066866783977,816.9877540714556
1533059896.795,1005.5952433384717,1572.7226518355483,714.0052223904505,745.9848876927854,779.5884358035602
1533059896.799,836.9909711517287,1560.5767949584726,666.0083821561012,727.8004347376047,1093.1523797500315
1533059896.803,710.5377670116715,1548.4309380813968,575.9989467447831,655.0129386191905,1297.3993182678955
1533059896.806,843.0090288482713,1548.4309380813968,552.0005266276085,715.6650450263948,1185.2072549762236
1533059896.81,1101.9334948249284,1538.312154246263,606.0061878743993,727.8004347376047,1156.4390018095357
1533059896.814,1047.7463113851575,1526.1662973691873,617.9992539442213,697.4681709967912,1185.2072549762236
1533059896.8179998,879.1420391984144,1524.1433696708893,594.0008338270467,703.5420763896077,802.6006817321045
1533059896.822,692.4712618365999,1524.1433696708893,540.0074605577864,691.4066866783977,673.1523797500315
1533059896.826,602.1510680466857,1514.0245858357555,533.9986395453449,624.6930959527999,831.3689348987922
1533059896.83,800.8579608015856,1520.0933689306494,612.0027209093104,642.8899699824035,854.3811808273366
1533059896.8339999,830.9729134551861,1534.2621535060232,606.0061878743993,709.6035607080013,842.8750578630644
1533059896.8379998,704.5197093151288,1542.3580096428589,528.0021065104338,661.0868440120071,992.4664394226319
1533059896.842,499.78242677824267,1550.4580111233388,504.00368639325916,618.6316116344063,992.4664394226319
1533059896.846,469.67980621008587,1532.2392258077252,540.0074605577864,594.3608322119863,865.8873037916088
1533059896.849,824.9425236731997,1514.0245858357555,630.004607991574,636.816064589587,1087.3963725118883
1533059896.853,873.1239815018719,1507.9516573972178,696.0033353081868,709.6035607080013,1288.7682531666876
1533059896.857,692.4712618365999,1520.0933689306494,624.0080749566629,673.2098126487941,834.2439927618567
1533059896.861,529.8973794318432,1528.1892250674853,600.0096548394883,576.1763792568057,871.6433110297521
1533059896.865,469.67980621008587,1503.9016566569778,630.004607991574,521.585757167995,880.2743761309599
1533059896.869,722.5862144902004,1501.8787289586799,617.9992539442213,545.8441155159921,747.9451247738081
1533059896.873,861.0755340233429,1499.855801260382,582.0077677572247,624.6930959527999,1101.7775533392248
1533059896.877,710.5377670116715,1485.687016685008,624.0080749566629,636.816064589587,1205.3444430417035
1533059896.881,541.9334948249284,1511.9975127938135,732.0071094727141,600.4347376048028,1265.7560072381434
1533059896.885,505.80048447478526,1526.1662973691873,738.0036425076252,564.0409895455957,1127.6707486428481
1533059896.889,873.1239815018719,1524.1433696708893,720.0017554253615,582.2378635751993,966.5732441190086
1533059896.8920002,1120.0,1526.1662973691873,804.002369824238,612.5577062415899,1300.2743761309598
1533059896.8960001,873.1239815018719,1516.0475135340535,875.997630175762,588.2993478935928,1337.6736943988553
1533059896.9,596.1330103501432,1503.9016566569778,809.9989028591491,539.7826311975986,903.2866220595042
1533059896.904,487.74631138515747,1481.6370159447683,714.0052223904505,503.38888313839146,819.8628119345201
1533059896.908,770.7553402334288,1485.687016685008,648.0064950738375,515.5242728496015,661.6403652737449
1533059896.9120002,951.3957278132569,1509.9745850955155,630.004607991574,557.9795052272021,848.6310651012078
1533059896.9160001,800.8579608015856,1507.9516573972178,648.0064950738375,606.4962219231963,888.9054412321676
1533059896.92,596.1330103501432,1505.9245843552758,624.0080749566629,527.6472414863886,747.9451247738081
1533059896.924,415.4802906848712,1507.9516573972178,575.9989467447831,424.55232377600663,1121.9147414047047
1533059896.928,644.3021360933715,1511.9975127938135,558.00934764005,454.87216644239726,1329.0426292976476
1533059896.931,921.2931072451001,1511.9975127938135,606.0061878743993,509.450367456785,854.3811808273366
1533059896.935,812.9064082801145,1493.782872821844,666.0083821561012,539.7826311975986,678.9024954761604
1533059896.939,590.1026205681568,1495.805800520142,642.0099620389266,479.13052479039436,713.4267558809914
1533059896.9429998,373.3292226381854,1507.9516573972178,617.9992539442213,388.1585757167995,595.4786853511762
1533059896.947,572.0484474785289,1491.755799779902,617.9992539442213,339.6418590208053,831.3689348987922
1533059896.951,897.208544373486,1477.5870152045284,552.0005266276085,369.96170168719595,917.6678028868408
1533059896.955,776.7733979299713,1481.6370159447683,533.9986395453449,406.355449746403,848.6310651012078
1533059896.9589999,553.9819423034573,1473.5411598079324,510.00021942817017,327.5064693095953,793.9696166308968
1533059896.9629998,415.4802906848712,1465.4453036710966,449.9980251464683,339.6418590208053,785.3444430417035
1533059896.967,596.1330103501432,1479.6140882464704,420.00307199438265,424.55232377600663,710.5458065059125
1533059896.971,891.1781545914997,1483.659943643066,510.00021942817017,485.1920091087879,693.2895678155115
1533059896.974,855.0574763268003,1477.5870152045284,642.0099620389266,539.7826311975986,799.7256238690401
1533059896.978,650.3201937899141,1465.4453036710966,624.0080749566629,509.450367456785,880.2743761309599
1533059896.982,469.67980621008587,1463.4223759727986,606.0061878743993,509.450367456785,736.4390018095359
1533059896.986,523.8669896498568,1477.5870152045284,570.002413709872,491.2659145016044,957.9421790178008
1533059896.99,782.791455626514,1473.5411598079324,540.0074605577864,436.6752924127937,1213.9696166308968
1533059896.994,758.7068927548999,1457.3494475342607,617.9992539442213,533.7211468792051,894.6555569582965
1533059896.998,650.3201937899141,1443.180662958887,678.0014482259232,551.9055998343857,914.7927450237764
1533059897.002,463.6494164280995,1463.4223759727986,575.9989467447831,406.355449746403,1124.7956907797836
1533059897.006,355.26271746311386,1481.6370159447683,456.00684615890987,248.6574888727875,848.6310651012078
1533059897.01,716.555824708214,1475.5640875062304,467.99991222873194,303.2481109615982,621.365989142785
1533059897.0129998,818.9244659766571,1473.5411598079324,438.0049590766463,339.6418590208053,1193.8324285654169
1533059897.0170002,638.2840783968289,1471.5182321096345,420.00307199438265,266.8543629023912,1415.3414972856963
1533059897.0210001,505.80048447478526,1473.5411598079324,402.001184912119,285.0512369319946,848.6310651012078
1533059897.025,397.4137855097996,1471.5182321096345,414.00653895947164,278.98975261360107,647.2591844464083
1533059897.029,650.3201937899141,1471.5182321096345,402.001184912119,242.59600455439394,552.3292513571519
1533059897.033,830.9729134551861,1467.4682313693945,425.99960502929366,291.11272125038806,934.9299330892565
1533059897.0370002,668.3866989649857,1465.4453036710966,462.0033791938209,278.98975261360107,932.0548752261919
1533059897.0410001,445.5952433384717,1467.4682313693945,372.00623176003336,236.53452023600042,724.9328788452636
1533059897.045,427.52873816340013,1477.5870152045284,318.0005705132425,272.92826829520754,1228.356688970248
1533059897.049,794.8399031050429,1495.805800520142,378.00276479494437,309.3095952799917,1254.2439927618566
1533059897.053,951.3957278132569,1522.1204419725914,414.00653895947164,345.70334333919885,1231.2317468333124
1533059897.056,818.9244659766571,1530.2162981094273,408.0100059245606,357.8263119759859,1113.2895678155114
1533059897.06,620.2175732217573,1509.9745850955155,414.00653895947164,321.44498499120175,963.6981862559442
1533059897.064,505.80048447478526,1509.9745850955155,456.00684615890987,394.220060035193,934.9299330892565
1533059897.0679998,830.9729134551861,1516.0475135340535,546.0039935926974,460.9336507607908,966.5732441190086
1533059897.072,981.5106804668575,1511.9975127938135,558.00934764005,442.73677673118726,1029.859866178513
1533059897.076,734.6223298832856,1499.855801260382,564.0058806749611,491.2659145016044,863.0122459285444
1533059897.08,596.1330103501432,1511.9975127938135,666.0083821561012,497.32739881999794,946.4360560535285
1533059897.0839999,511.8308742567716,1514.0245858357555,666.0083821561012,406.355449746403,1300.2743761309598
1533059897.0879998,776.7733979299713,1501.8787289586799,588.0043007921357,406.355449746403,920.5487522619198
1533059897.092,999.5771856419291,1507.9516573972178,570.002413709872,436.6752924127937,425.75011572612885
1533059897.096,836.9909711517287,1503.9016566569778,582.0077677572247,406.355449746403,782.4634936666246
1533059897.099,698.4893195331425,1491.755799779902,552.0005266276085,418.47841838319016,796.8505660059757
1533059897.103,553.9819423034573,1489.732872081604,510.00021942817017,460.9336507607908,678.9024954761604
1533059897.107,704.5197093151288,1493.782872821844,522.0055734755227,430.61380809440016,857.2621302024155
1533059897.111,969.4622329883285,1507.9516573972178,552.0005266276085,345.70334333919885,1064.384126583344
1533059897.115,891.1781545914997,1499.855801260382,546.0039935926974,345.70334333919885,1055.753061482136
1533059897.119,728.6042721867431,1479.6140882464704,552.0005266276085,388.1585757167995,857.2621302024155
1533059897.123,523.8669896498568,1461.3953029308566,480.0052662760845,382.09709139840595,983.8353743214241
1533059897.127,596.1330103501432,1455.3223744923189,420.00307199438265,382.09709139840595,1116.164625678576
1533059897.131,891.1781545914997,1467.4682313693945,462.0033791938209,394.220060035193,1167.945124773808
1533059897.135,885.1600968949571,1473.5411598079324,474.0087332411735,418.47841838319016,1084.5213146488238
1533059897.1379998,764.7372825368861,1469.4911590676925,467.99991222873194,503.38888313839146,1049.9970542439928
1533059897.1420002,547.9515525214711,1457.3494475342607,480.0052662760845,527.6472414863886,1070.1342423094727
1533059897.1460001,572.0484474785289,1437.1077345203491,528.0021065104338,497.32739881999794,972.3292513571519
1533059897.15,861.0755340233429,1445.203590657185,594.0008338270467,479.13052479039436,983.8353743214241
1533059897.154,776.7733979299713,1463.4223759727986,617.9992539442213,436.6752924127937,799.7256238690401
1533059897.158,602.1510680466857,1465.4453036710966,582.0077677572247,406.355449746403,681.7775533392248
1533059897.1620002,439.56485355648533,1463.4223759727986,546.0039935926974,297.18662664320465,592.6036274881118
1533059897.1660001,433.54679585994273,1453.299446794021,564.0058806749611,206.20225649518684,615.6158734166562
1533059897.17,746.6707773618145,1441.153589916945,558.00934764005,248.6574888727875,756.5761898750158
1533059897.174,764.7372825368861,1453.299446794021,570.002413709872,291.11272125038806,707.6707486428481
1533059897.178,584.0845628716141,1469.4911590676925,636.001141026485,297.18662664320465,914.7927450237764
1533059897.181,397.4137855097996,1479.6140882464704,678.0014482259232,260.7928785839975,949.3170054286074
1533059897.185,409.46223298832854,1469.4911590676925,666.0083821561012,206.20225649518684,730.6829945713926
1533059897.189,776.7733979299713,1465.4453036710966,654.0030281087486,200.1407721767933,802.6006817321045
1533059897.1929998,843.0090288482713,1471.5182321096345,648.0064950738375,285.0512369319946,747.9451247738081
1533059897.197,620.2175732217573,1465.4453036710966,659.9995611436597,303.2481109615982,537.9421790178008
1533059897.201,457.63135873155693,1473.5411598079324,780.0039497070634,291.11272125038806,601.2346925893195
1533059897.205,457.63135873155693,1493.782872821844,864.00456410594,327.5064693095953,934.9299330892565
1533059897.2089999,788.8218454085003,1507.9516573972178,822.0042569065016,369.96170168719595,877.3993182678955
1533059897.2129998,885.1600968949571,1520.0933689306494,756.0055295898887,388.1585757167995,733.558052434457
1533059897.217,752.6888350583572,1524.1433696708893,708.0086893555394,436.6752924127937,1205.3444430417035
1533059897.221,632.2536886148425,1505.9245843552758,654.0030281087486,467.0075561536073,1009.7226781130329
1533059897.224,596.1330103501432,1497.82872821844,678.0014482259232,442.73677673118726,886.0244918570887
1533059897.228,879.1420391984144,1489.732872081604,725.9982884602725,454.87216644239726,934.9299330892565
1533059897.232,981.5106804668575,1463.4223759727986,732.0071094727141,485.1920091087879,696.1646256785759
1533059897.236,843.0090288482713,1457.3494475342607,762.0020626247998,479.13052479039436,678.9024954761604
1533059897.24,662.3686412684431,1471.5182321096345,858.0080310710289,460.9336507607908,848.6310651012078
1533059897.244,499.78242677824267,1451.276519095723,870.0010971408509,388.1585757167995,831.3689348987922
1533059897.248,728.6042721867431,1465.4453036710966,906.0048713053782,376.0231860055895,811.2317468333123
1533059897.252,945.3776701167144,1505.9245843552758,930.0032914225528,442.73677673118726,831.3689348987922
1533059897.256,812.9064082801145,1499.855801260382,851.9992100585873,436.6752924127937,825.6129276606489
1533059897.26,680.4351464435147,1495.805800520142,809.9989028591491,436.6752924127937,1199.58843580356
1533059897.2629998,578.0665051750716,1485.687016685008,725.9982884602725,424.55232377600663,1006.8476202499685
1533059897.2670002,752.6888350583572,1455.3223744923189,708.0086893555394,412.4169340647966,716.3018137440558
1533059897.2710001,945.3776701167144,1461.3953029308566,642.0099620389266,394.220060035193,868.7682531666877
1533059897.275,818.9244659766571,1453.299446794021,540.0074605577864,303.2481109615982,655.890249547616
1533059897.279,566.0180576965427,1418.8889492047356,582.0077677572247,200.1407721767933,609.8598661785128
1533059897.283,355.26271746311386,1404.7201646293618,642.0099620389266,157.68553979919264,742.1891175356646
1533059897.2870002,626.2356309183,1414.8430938081397,612.0027209093104,236.53452023600042,641.5031772082649
1533059897.2910001,873.1239815018719,1422.9389499449755,624.0080749566629,309.3095952799917,768.082312839288
1533059897.295,722.5862144902004,1431.0348060818112,654.0030281087486,278.98975261360107,799.7256238690401
1533059897.299,614.1995155252147,1429.0118783835135,600.0096548394883,321.44498499120175,960.8231283928797
1533059897.303,475.69786390662847,1426.9848053415715,540.0074605577864,339.6418590208053,1098.9024954761603
1533059897.306,614.1995155252147,1451.276519095723,504.00368639325916,303.2481109615982,986.7104321844885
1533059897.31,897.208544373486,1461.3953029308566,552.0005266276085,333.5679536279888,848.6310651012078
1533059897.314,824.9425236731997,1449.253591397425,575.9989467447831,357.8263119759859,969.4541934940875
1533059897.3179998,680.4351464435147,1439.130662218647,617.9992539442213,406.355449746403,1021.2346925893195
1533059897.322,535.9154371283859,1459.3723752325586,678.0014482259232,485.1920091087879,943.5609981904641
1533059897.326,602.1510680466857,1457.3494475342607,659.9995611436597,442.73677673118726,1208.219500904768
1533059897.33,909.2446597665712,1455.3223744923189,701.9998683430979,412.4169340647966,903.2866220595042
1533059897.3339999,879.1420391984144,1467.4682313693945,690.0068022732759,394.220060035193,529.3170054286074
1533059897.3379998,674.4047566615283,1475.5640875062304,666.0083821561012,376.0231860055895,819.8628119345201
1533059897.342,439.56485355648533,1473.5411598079324,690.0068022732759,345.70334333919885,768.082312839288
1533059897.345,457.63135873155693,1467.4682313693945,642.0099620389266,327.5064693095953,802.6006817321045
1533059897.349,873.1239815018719,1489.732872081604,648.0064950738375,333.5679536279888,854.3811808273366
1533059897.353,909.2446597665712,1475.5640875062304,678.0014482259232,285.0512369319946,975.2043092202163
1533059897.357,722.5862144902004,1443.180662958887,588.0043007921357,224.3991305247904,808.3566889702479
1533059897.361,487.74631138515747,1437.1077345203491,546.0039935926974,181.94389814718974,664.5213146488238
1533059897.365,391.395727813257,1420.9160222466776,552.0005266276085,145.56257116240562,693.2895678155115
1533059897.369,722.5862144902004,1429.0118783835135,558.00934764005,175.8824138287962,572.4664394226319
1533059897.373,818.9244659766571,1447.226518355483,636.001141026485,272.92826829520754,877.3993182678955
1533059897.377,656.3505835719004,1418.8889492047356,648.0064950738375,297.18662664320465,937.8049909523208
1533059897.381,451.61330103501433,1418.8889492047356,606.0061878743993,260.7928785839975,796.8505660059757
1533059897.385,373.3292226381854,1439.130662218647,624.0080749566629,278.98975261360107,1136.3018137440558
1533059897.3879998,728.6042721867431,1445.203590657185,642.0099620389266,357.8263119759859,1222.6006817321045
1533059897.3920002,945.3776701167144,1455.3223744923189,659.9995611436597,467.0075561536073,1188.082312839288
1533059897.3960001,734.6223298832856,1455.3223744923189,672.0049151910122,485.1920091087879,1469.9970542439928
1533059897.4,463.6494164280995,1455.3223744923189,617.9992539442213,442.73677673118726,1219.7256238690402
1533059897.404,385.3776701167144,1469.4911590676925,617.9992539442213,467.0075561536073,1222.6006817321045
1533059897.408,626.2356309183,1475.5640875062304,672.0049151910122,436.6752924127937,1343.4238101249841
1533059897.4120002,764.7372825368861,1469.4911590676925,701.9998683430979,400.28154435358664,808.3566889702479
1533059897.4160001,602.1510680466857,1457.3494475342607,756.0055295898887,406.355449746403,716.3018137440558
1533059897.42,433.54679585994273,1453.299446794021,798.005836789327,394.220060035193,1047.1219963809283
1533059897.424,373.3292226381854,1469.4911590676925,750.0089965549778,376.0231860055895,940.6859403273997
1533059897.428,626.2356309183,1487.709944383306,822.0042569065016,388.1585757167995,871.6433110297521
1533059897.431,824.9425236731997,1501.8787289586799,906.0048713053782,400.28154435358664,837.1249421369356
1533059897.435,686.4532041400572,1495.805800520142,893.9995172580255,430.61380809440016,1047.1219963809283
1533059897.439,475.69786390662847,1465.4453036710966,851.9992100585873,430.61380809440016,998.2165551487607
1533059897.4429998,325.16009689495706,1449.253591397425,804.002369824238,333.5679536279888,926.2988679880486
1533059897.447,529.8973794318432,1449.253591397425,792.009303754416,297.18662664320465,653.0151916845516
1533059897.451,740.6403875798283,1447.226518355483,816.0077238715907,339.6418590208053,632.8780036190717
1533059897.455,662.3686412684431,1431.0348060818112,798.005836789327,376.0231860055895,940.6859403273997
1533059897.4589999,535.9154371283859,1422.9389499449755,767.9985956597108,369.96170168719595,926.2988679880486
1533059897.4629998,403.44417529178594,1441.153589916945,708.0086893555394,363.9002173688024,1055.753061482136
1533059897.467,566.0180576965427,1439.130662218647,690.0068022732759,327.5064693095953,900.4115641964398
1533059897.47,885.1600968949571,1445.203590657185,744.0001755425361,291.11272125038806,770.9573707023524
1533059897.474,915.2750495485576,1451.276519095723,683.9979812608343,357.8263119759859,914.7927450237764
1533059897.478,806.8883505835719,1459.3723752325586,588.0043007921357,412.4169340647966,1271.5061229642722
1533059897.482,596.1330103501432,1453.299446794021,552.0005266276085,369.96170168719595,1202.4634936666246
1533059897.486,650.3201937899141,1429.0118783835135,564.0058806749611,394.220060035193,1015.4786853511762
1533059897.49,987.5287381634001,1414.8430938081397,564.0058806749611,454.87216644239726,1326.1616799225687
1533059897.494,969.4622329883285,1414.8430938081397,498.00715335834815,539.7826311975986,1236.9877540714556
1533059897.498,746.6707773618145,1416.8660215064376,491.9983323459066,557.9795052272021,1006.8476202499685
1533059897.502,523.8669896498568,1412.8160207661977,462.0033791938209,479.13052479039436,828.4938770357278
1533059897.506,547.9515525214711,1429.0118783835135,425.99960502929366,467.0075561536073,586.8476202499685
1533059897.51,885.1600968949571,1441.153589916945,449.9980251464683,467.0075561536073,615.6158734166562
1533059897.5129998,885.1600968949571,1447.226518355483,402.001184912119,509.450367456785,1006.8476202499685
1533059897.5170002,686.4532041400572,1449.253591397425,414.00653895947164,460.9336507607908,986.7104321844885
1533059897.5210001,517.8489319533143,1451.276519095723,528.0021065104338,388.1585757167995,655.890249547616
1533059897.525,487.74631138515747,1445.203590657185,564.0058806749611,327.5064693095953,799.7256238690401
1533059897.529,849.0270865448139,1463.4223759727986,491.9983323459066,278.98975261360107,796.8505660059757
1533059897.533,945.3776701167144,1483.659943643066,467.99991222873194,321.44498499120175,952.192063291672
1533059897.5370002,746.6707773618145,1481.6370159447683,540.0074605577864,260.7928785839975,911.917687160712
1533059897.5410001,481.7159216031711,1477.5870152045284,564.0058806749611,115.23030742159197,1041.3718806547995
1533059897.545,403.44417529178594,1463.4223759727986,552.0005266276085,121.29179173998551,1133.4267558809915
1533059897.549,716.555824708214,1449.253591397425,575.9989467447831,200.1407721767933,811.2317468333123
1533059897.553,855.0574763268003,1457.3494475342607,570.002413709872,321.44498499120175,1055.753061482136
1533059897.556,794.8399031050429,1477.5870152045284,516.0090404406118,460.9336507607908,1199.58843580356
1533059897.56,626.2356309183,1481.6370159447683,474.0087332411735,467.0075561536073,842.8750578630644
1533059897.564,457.63135873155693,1479.6140882464704,383.9992978298554,351.7648276575924,739.3140596726003
1533059897.5679998,734.6223298832856,1495.805800520142,366.00969872512235,333.5679536279888,1213.9696166308968
1533059897.572,969.4622329883285,1495.805800520142,341.99899063041715,485.1920091087879,978.0793670832808
1533059897.576,824.9425236731997,1497.82872821844,318.0005705132425,527.6472414863886,699.0396835416403
1533059897.58,656.3505835719004,1507.9516573972178,341.99899063041715,454.87216644239726,828.4938770357278
1533059897.5839999,547.9515525214711,1487.709944383306,288.00561736115685,406.355449746403,946.4360560535285
1533059897.5879998,758.7068927548999,1467.4682313693945,258.01066420907114,406.355449746403,814.1068046963767
1533059897.592,951.3957278132569,1481.6370159447683,252.00184319662958,436.6752924127937,578.2165551487607
1533059897.595,752.6888350583572,1491.755799779902,240.00877712680753,424.55232377600663,937.8049909523208
1533059897.599,469.67980621008587,1471.5182321096345,252.00184319662958,303.2481109615982,776.7133779404958
1533059897.603,325.16009689495706,1459.3723752325586,324.00939152568407,230.47303591760686,765.2072549762236
1533059897.607,511.8308742567716,1469.4911590676925,378.00276479494437,218.33764620639684,1084.5213146488238
1533059897.611,698.4893195331425,1479.6140882464704,282.0090843262458,230.47303591760686,1047.1219963809283
1533059897.615,602.1510680466857,1469.4911590676925,233.99995611436597,266.8543629023912,929.1798173631275
1533059897.619,445.5952433384717,1461.3953029308566,252.00184319662958,278.98975261360107,782.4634936666246
1533059897.623,228.82184540850034,1461.3953029308566,233.99995611436597,230.47303591760686,937.8049909523208
1533059897.627,319.14203919841447,1455.3223744923189,330.0059245605951,194.07928785839974,926.2988679880486
1533059897.631,656.3505835719004,1451.276519095723,383.9992978298554,248.6574888727875,831.3689348987922
1533059897.635,614.1995155252147,1439.130662218647,341.99899063041715,260.7928785839975,1271.5061229642722
1533059897.6379998,439.56485355648533,1445.203590657185,408.0100059245606,266.8543629023912,1418.2165551487608
1533059897.6420002,343.2266020700286,1459.3723752325586,528.0021065104338,345.70334333919885,1055.753061482136
1533059897.6460001,541.9334948249284,1459.3723752325586,582.0077677572247,418.47841838319016,880.2743761309599
1533059897.65,909.2446597665712,1481.6370159447683,594.0008338270467,454.87216644239726,739.3140596726003
1533059897.654,824.9425236731997,1481.6370159447683,564.0058806749611,442.73677673118726,1009.7226781130329
1533059897.658,620.2175732217573,1463.4223759727986,522.0055734755227,473.06904047200084,1245.6188191726633
1533059897.6620002,421.51068046685754,1449.253591397425,540.0074605577864,460.9336507607908,1041.3718806547995
1533059897.6660001,481.7159216031711,1447.226518355483,558.00934764005,400.28154435358664,857.2621302024155
1533059897.67,939.3596124201717,1461.3953029308566,636.001141026485,460.9336507607908,701.9147414047048
1533059897.674,945.3776701167144,1461.3953029308566,708.0086893555394,515.5242728496015,1090.2714303749526
1533059897.678,734.6223298832856,1471.5182321096345,642.0099620389266,473.06904047200084,960.8231283928797
1533059897.681,566.0180576965427,1485.687016685008,617.9992539442213,406.355449746403,578.2165551487607
1533059897.685,578.0665051750716,1495.805800520142,636.001141026485,388.1585757167995,759.4512477380802
1533059897.689,921.2931072451001,1516.0475135340535,630.004607991574,351.7648276575924,969.4541934940875
1533059897.6929998,927.3111649416428,1503.9016566569778,648.0064950738375,357.8263119759859,1199.58843580356
1533059897.697,662.3686412684431,1473.5411598079324,624.0080749566629,388.1585757167995,992.4664394226319
1533059897.701,445.5952433384717,1465.4453036710966,516.0090404406118,297.18662664320465,736.4390018095359
1533059897.705,367.3111649416428,1469.4911590676925,480.0052662760845,285.0512369319946,819.8628119345201
1533059897.7089999,662.3686412684431,1477.5870152045284,528.0021065104338,333.5679536279888,1026.9848083154484
1533059897.7129998,782.791455626514,1485.687016685008,474.0087332411735,339.6418590208053,1179.4512477380802
1533059897.717,584.0845628716141,1487.709944383306,408.0100059245606,285.0512369319946,992.4664394226319
1533059897.72,397.4137855097996,1489.732872081604,432.0084260417352,218.33764620639684,828.4938770357278
1533059897.724,361.2931072451002,1495.805800520142,504.00368639325916,188.0178035400062,1110.4086184404325
1533059897.728,698.4893195331425,1481.6370159447683,552.0005266276085,206.20225649518684,1035.615873416656
1533059897.732,879.1420391984144,1467.4682313693945,612.0027209093104,278.98975261360107,713.4267558809914
1533059897.736,782.791455626514,1483.659943643066,696.0033353081868,303.2481109615982,1101.7775533392248
1533059897.74,572.0484474785289,1479.6140882464704,725.9982884602725,230.47303591760686,1193.8324285654169
1533059897.744,445.5952433384717,1467.4682313693945,756.0055295898887,242.59600455439394,966.5732441190086
1533059897.748,788.8218454085003,1503.9016566569778,888.0029842231146,388.1585757167995,886.0244918570887
1533059897.752,1005.5952433384717,1518.0704412323514,1008.0073727865183,491.2659145016044,566.7104321844885
1533059897.756,945.3776701167144,1511.9975127938135,1050.0076799859567,491.2659145016044,537.9421790178008
1533059897.76,843.0090288482713,1516.0475135340535,1067.9972790906897,467.0075561536073,943.5609981904641
1533059897.7629998,644.3021360933715,1514.0245858357555,1032.005792903693,497.32739881999794,1193.8324285654169
1533059897.7670002,800.8579608015856,1516.0475135340535,1043.998858973515,533.7211468792051,1093.1523797500315
1533059897.7710001,1053.7643690817001,1520.0933689306494,1092.0079871853948,557.9795052272021,782.4634936666246
1533059897.775,951.3957278132569,1536.289226547965,1092.0079871853948,539.7826311975986,796.8505660059757
1533059897.779,722.5862144902004,1536.289226547965,1067.9972790906897,454.87216644239726,627.1219963809283
1533059897.783,469.67980621008587,1526.1662973691873,1032.005792903693,400.28154435358664,500.5487522619198
1533059897.7870002,584.0845628716141,1546.4080103830988,959.9982445746385,376.0231860055895,690.4086184404326
1533059897.7910001,812.9064082801145,1558.5538672601747,930.0032914225528,315.3835006728082,940.6859403273997
1533059897.795,704.5197093151288,1582.8414356706821,990.0054857042547,333.5679536279888,1127.6707486428481
1533059897.799,475.69786390662847,1590.9372918075178,1032.005792903693,321.44498499120175,1029.859866178513
1533059897.802,204.72495045144242,1560.5767949584726,1080.0026331380423,212.27616188800332,934.9299330892565
1533059897.806,331.17815459149966,1566.6497233970103,1134.008294384833,181.94389814718974,894.6555569582965
1533059897.81,704.5197093151288,1594.9872925477578,1122.0029403374806,248.6574888727875,834.2439927618567
1533059897.814,698.4893195331425,1586.891436410922,1062.0007460557786,285.0512369319946,886.0244918570887
1533059897.8179998,523.8669896498568,1584.86436336898,1014.0039058214294,321.44498499120175,894.6555569582965
1533059897.822,391.395727813257,1584.86436336898,930.0032914225528,357.8263119759859,1044.246938517864
1533059897.826,487.74631138515747,1578.7955802740862,828.0007899414127,363.9002173688024,1167.945124773808
1533059897.83,879.1420391984144,1592.9643648494598,822.0042569065016,448.81068212400373,1058.6281193452005
1533059897.8339999,909.2446597665712,1603.0831486845937,840.0061439887653,509.450367456785,1084.5213146488238
1533059897.8379998,740.6403875798283,1603.0831486845937,828.0007899414127,527.6472414863886,929.1798173631275
1533059897.842,560.0,1597.0102202460557,774.0074166721523,497.32739881999794,661.6403652737449
1533059897.845,529.8973794318432,1584.86436336898,696.0033353081868,418.47841838319016,710.5458065059125
1533059897.849,897.208544373486,1574.7455795338462,798.005836789327,424.55232377600663,1170.8201826368725
1533059897.853,999.5771856419291,1580.8185079723842,912.0014043402892,485.1920091087879,793.9696166308968
1533059897.857,861.0755340233429,1584.86436336898,942.0086454699054,497.32739881999794,638.6281193452005
1533059897.861,686.4532041400572,1556.5267942182327,948.0051785048164,460.9336507607908,819.8628119345201
1533059897.865,560.0,1548.4309380813968,888.0029842231146,394.220060035193,980.9603164583597
1533059897.869,824.9425236731997,1540.335081944561,893.9995172580255,418.47841838319016,995.3414972856963
1533059897.873,885.1600968949571,1530.2162981094273,912.0014043402892,454.87216644239726,687.5335605773681
1533059897.877,674.4047566615283,1530.2162981094273,780.0039497070634,363.9002173688024,865.8873037916088
1533059897.881,499.78242677824267,1534.2621535060232,701.9998683430979,291.11272125038806,762.3263056011447
1533059897.885,385.3776701167144,1536.289226547965,732.0071094727141,242.59600455439394,765.2072549762236
1533059897.8879998,632.2536886148425,1530.2162981094273,780.0039497070634,224.3991305247904,736.4390018095359
1533059897.8920002,770.7553402334288,1518.0704412323514,846.0026770236763,248.6574888727875,676.027437613096
1533059897.8960001,584.0845628716141,1503.9016566569778,767.9985956597108,260.7928785839975,727.807936708328
1533059897.9,343.2266020700286,1483.659943643066,659.9995611436597,248.6574888727875,983.8353743214241
1533059897.904,240.85796080158556,1465.4453036710966,612.0027209093104,224.3991305247904,854.3811808273366
1533059897.908,523.8669896498568,1473.5411598079324,540.0074605577864,260.7928785839975,543.6981862559442
1533059897.9120002,716.555824708214,1491.755799779902,558.00934764005,297.18662664320465,840.0
1533059897.9160001,650.3201937899141,1491.755799779902,575.9989467447831,285.0512369319946,937.8049909523208
1533059897.92,517.8489319533143,1499.855801260382,575.9989467447831,309.3095952799917,762.3263056011447
1533059897.924,331.17815459149966,1499.855801260382,594.0008338270467,285.0512369319946,684.6585027143037
1533059897.927,584.0845628716141,1499.855801260382,570.002413709872,291.11272125038806,612.7408155535917
1533059897.931,830.9729134551861,1509.9745850955155,594.0008338270467,363.9002173688024,664.5213146488238
1533059897.935,674.4047566615283,1507.9516573972178,582.0077677572247,309.3095952799917,716.3018137440558
1533059897.939,547.9515525214711,1495.805800520142,546.0039935926974,230.47303591760686,871.6433110297521
1533059897.9429998,421.51068046685754,1485.687016685008,540.0074605577864,194.07928785839974,937.8049909523208
1533059897.947,578.0665051750716,1483.659943643066,546.0039935926974,206.20225649518684,618.4909312797206
1533059897.951,800.8579608015856,1467.4682313693945,606.0061878743993,266.8543629023912,742.1891175356646
1533059897.955,692.4712618365999,1447.226518355483,683.9979812608343,278.98975261360107,635.7530614821361
1533059897.9589999,535.9154371283859,1443.180662958887,666.0083821561012,278.98975261360107,437.25623869040106
1533059897.9629998,415.4802906848712,1445.203590657185,606.0061878743993,278.98975261360107,840.0
1533059897.967,566.0180576965427,1437.1077345203491,617.9992539442213,315.3835006728082,753.6952404999369
1533059897.97,830.9729134551861,1422.9389499449755,672.0049151910122,351.7648276575924,730.6829945713926
1533059897.974,728.6042721867431,1400.674309232766,696.0033353081868,351.7648276575924,1142.0519294701846
1533059897.978,517.8489319533143,1404.7201646293618,708.0086893555394,309.3095952799917,1139.1768716071203
1533059897.982,276.9909711517287,1422.9389499449755,683.9979812608343,260.7928785839975,969.4541934940875
1533059897.986,403.44417529178594,1443.180662958887,654.0030281087486,278.98975261360107,1009.7226781130329
1533059897.99,752.6888350583572,1453.299446794021,659.9995611436597,327.5064693095953,840.0
1533059897.994,746.6707773618145,1441.153589916945,564.0058806749611,357.8263119759859,750.8201826368725
1533059897.998,638.2840783968289,1449.253591397425,564.0058806749611,412.4169340647966,1032.7408155535918
1533059898.002,403.44417529178594,1449.253591397425,648.0064950738375,363.9002173688024,1216.8505660059757
1533059898.006,469.67980621008587,1449.253591397425,624.0080749566629,291.11272125038806,1001.0975045238396
1533059898.01,903.2266020700287,1435.0848068220512,617.9992539442213,394.220060035193,814.1068046963767
1533059898.0129998,939.3596124201717,1433.0577337801092,642.0099620389266,545.8441155159921,837.1249421369356
1533059898.0170002,758.7068927548999,1441.153589916945,624.0080749566629,594.3608322119863,920.5487522619198
1533059898.0210001,547.9515525214711,1431.0348060818112,582.0077677572247,515.5242728496015,704.7956907797837
1533059898.025,632.2536886148425,1433.0577337801092,666.0083821561012,503.38888313839146,670.2714303749526
1533059898.029,927.3111649416428,1447.226518355483,858.0080310710289,497.32739881999794,1067.2591844464082
1533059898.033,818.9244659766571,1451.276519095723,893.9995172580255,418.47841838319016,1375.0671211547362
1533059898.0370002,686.4532041400572,1439.130662218647,882.0064511882035,436.6752924127937,1343.4238101249841
1533059898.0410001,566.0180576965427,1433.0577337801092,851.9992100585873,406.355449746403,1001.0975045238396
1533059898.045,493.76436908170007,1447.226518355483,833.9973229763237,351.7648276575924,1167.945124773808
1533059898.049,764.7372825368861,1473.5411598079324,924.0067583876418,369.96170168719595,1127.6707486428481
1533059898.052,812.9064082801145,1481.6370159447683,954.0017115397275,369.96170168719595,1049.9970542439928
1533059898.056,650.3201937899141,1469.4911590676925,948.0051785048164,357.8263119759859,1049.9970542439928
1533059898.06,391.395727813257,1469.4911590676925,942.0086454699054,303.2481109615982,710.5458065059125
1533059898.064,246.87601849812816,1481.6370159447683,954.0017115397275,254.73139426560397,773.8324285654169
1533059898.0679998,578.0665051750716,1491.755799779902,954.0017115397275,266.8543629023912,681.7775533392248
1533059898.072,770.7553402334288,1528.1892250674853,917.9979373752002,272.92826829520754,658.7653074106805
1533059898.076,656.3505835719004,1534.2621535060232,978.0001316569021,291.11272125038806,1001.0975045238396
1533059898.08,523.8669896498568,1524.1433696708893,1020.0004388563403,297.18662664320465,1133.4267558809915
1533059898.0839999,451.61330103501433,1528.1892250674853,966.0070655870801,297.18662664320465,1081.6462567857593
1533059898.0879998,716.555824708214,1528.1892250674853,846.0026770236763,333.5679536279888,963.6981862559442
1533059898.092,897.208544373486,1507.9516573972178,756.0055295898887,357.8263119759859,903.2866220595042
1533059898.095,734.6223298832856,1477.5870152045284,756.0055295898887,376.0231860055895,980.9603164583597
1533059898.099,566.0180576965427,1475.5640875062304,774.0074166721523,424.55232377600663,877.3993182678955
1533059898.103,385.3776701167144,1479.6140882464704,792.009303754416,388.1585757167995,523.5609981904641
1533059898.107,535.9154371283859,1479.6140882464704,767.9985956597108,363.9002173688024,371.0945587678323
1533059898.111,818.9244659766571,1477.5870152045284,774.0074166721523,442.73677673118726,583.972562386904
1533059898.115,752.6888350583572,1469.4911590676925,906.0048713053782,503.38888313839146,1070.1342423094727
1533059898.119,584.0845628716141,1487.709944383306,888.0029842231146,448.81068212400373,946.4360560535285
1533059898.123,403.44417529178594,1524.1433696708893,756.0055295898887,369.96170168719595,975.2043092202163
1533059898.127,560.0,1550.4580111233388,720.0017554253615,406.355449746403,753.6952404999369
1533059898.131,812.9064082801145,1564.6267956987124,659.9995611436597,406.355449746403,842.8750578630644
1533059898.135,716.555824708214,1544.3850826848009,630.004607991574,394.220060035193,1400.9603164583596
1533059898.1379998,535.9154371283859,1534.2621535060232,624.0080749566629,369.96170168719595,1041.3718806547995
1533059898.1420002,313.1116494164281,1534.2621535060232,582.0077677572247,309.3095952799917,765.2072549762236
1533059898.1460001,451.61330103501433,1526.1662973691873,606.0061878743993,254.73139426560397,632.8780036190717
1533059898.15,818.9244659766571,1546.4080103830988,672.0049151910122,272.92826829520754,837.1249421369356
1533059898.154,788.8218454085003,1568.6726510953083,654.0030281087486,315.3835006728082,923.4238101249842
1533059898.158,680.4351464435147,1566.6497233970103,624.0080749566629,321.44498499120175,1119.0396835416404
1533059898.1620002,608.1691257432284,1570.6955787936063,612.0027209093104,394.220060035193,1222.6006817321045
1533059898.1660001,674.4047566615283,1564.6267956987124,606.0061878743993,400.28154435358664,1260.0
1533059898.17,969.4622329883285,1556.5267942182327,624.0080749566629,412.4169340647966,1078.7653074106804
1533059898.174,1017.6313587315569,1552.4809388216368,588.0043007921357,485.1920091087879,894.6555569582965
1533059898.177,861.0755340233429,1540.335081944561,510.00021942817017,479.13052479039436,957.9421790178008
1533059898.181,596.1330103501432,1528.1892250674853,522.0055734755227,376.0231860055895,1018.3537432142406
1533059898.185,566.0180576965427,1511.9975127938135,522.0055734755227,309.3095952799917,1075.8902495476161
1533059898.189,927.3111649416428,1509.9745850955155,516.0090404406118,406.355449746403,733.558052434457
1533059898.1929998,1029.6798062100859,1524.1433696708893,533.9986395453449,527.6472414863886,845.7501157261289
1533059898.197,824.9425236731997,1511.9975127938135,552.0005266276085,503.38888313839146,1093.1523797500315
1533059898.201,584.0845628716141,1487.709944383306,570.002413709872,436.6752924127937,1073.0151916845516
1533059898.205,547.9515525214711,1469.4911590676925,540.0074605577864,388.1585757167995,1067.2591844464082
1533059898.2089999,867.0935917198855,1461.3953029308566,533.9986395453449,369.96170168719595,906.1616799225687
1533059898.2129998,927.3111649416428,1485.687016685008,600.0096548394883,369.96170168719595,1006.8476202499685
1533059898.217,710.5377670116715,1507.9516573972178,588.0043007921357,400.28154435358664,995.3414972856963
1533059898.22,523.8669896498568,1514.0245858357555,552.0005266276085,412.4169340647966,860.1371880654799
1533059898.224,433.54679585994273,1516.0475135340535,540.0074605577864,345.70334333919885,978.0793670832808
1533059898.228,692.4712618365999,1524.1433696708893,504.00368639325916,333.5679536279888,1248.4938770357278
1533059898.232,824.9425236731997,1532.2392258077252,456.00684615890987,321.44498499120175,980.9603164583597
1533059898.236,680.4351464435147,1538.312154246263,425.99960502929366,266.8543629023912,722.0519294701847
1533059898.24,529.8973794318432,1534.2621535060232,444.0014921115573,206.20225649518684,943.5609981904641
1533059898.244,469.67980621008587,1528.1892250674853,425.99960502929366,145.56257116240562,543.6981862559442
1533059898.248,704.5197093151288,1532.2392258077252,425.99960502929366,133.42718145119545,512.0548752261919
1533059898.252,818.9244659766571,1507.9516573972178,570.002413709872,175.8824138287962,1032.7408155535918
1533059898.256,746.6707773618145,1477.5870152045284,642.0099620389266,291.11272125038806,1202.4634936666246
1533059898.2589998,596.1330103501432,1445.203590657185,666.0083821561012,315.3835006728082,1277.2621302024156
1533059898.2629998,469.67980621008587,1435.0848068220512,678.0014482259232,278.98975261360107,1231.2317468333124
1533059898.2670002,716.555824708214,1449.253591397425,714.0052223904505,321.44498499120175,1090.2714303749526
1533059898.2710001,969.4622329883285,1471.5182321096345,767.9985956597108,418.47841838319016,871.6433110297521
1533059898.275,891.1781545914997,1469.4911590676925,767.9985956597108,497.32739881999794,897.5365063333754
1533059898.279,686.4532041400572,1426.9848053415715,774.0074166721523,418.47841838319016,750.8201826368725
1533059898.283,572.0484474785289,1414.8430938081397,774.0074166721523,376.0231860055895,365.338551529689
1533059898.2870002,710.5377670116715,1402.697236931064,840.0061439887653,400.28154435358664,304.93287884526364
1533059898.2910001,861.0755340233429,1388.5284523556902,864.00456410594,388.1585757167995,215.7530614821361
1533059898.295,740.6403875798283,1384.4825969590943,756.0055295898887,394.220060035193,396.98775407145564
1533059898.299,511.8308742567716,1370.3138123837207,708.0086893555394,333.5679536279888,1176.5761898750159
1533059898.302,319.14203919841447,1382.4555239171523,636.001141026485,369.96170168719595,1285.8873037916087
1533059898.306,529.8973794318432,1418.8889492047356,648.0064950738375,406.355449746403,955.0671211547364
1533059898.31,818.9244659766571,1447.226518355483,708.0086893555394,327.5064693095953,937.8049909523208
1533059898.314,704.5197093151288,1461.3953029308566,696.0033353081868,309.3095952799917,909.0426292976476
1533059898.3179998,517.8489319533143,1461.3953029308566,756.0055295898887,315.3835006728082,986.7104321844885
1533059898.322,331.17815459149966,1451.276519095723,744.0001755425361,272.92826829520754,845.7501157261289
1533059898.326,403.44417529178594,1463.4223759727986,659.9995611436597,230.47303591760686,1285.8873037916087
1533059898.33,740.6403875798283,1477.5870152045284,678.0014482259232,218.33764620639684,1386.5732441190085
1533059898.3339999,692.4712618365999,1465.4453036710966,612.0027209093104,224.3991305247904,1170.8201826368725
1533059898.3379998,487.74631138515747,1451.276519095723,552.0005266276085,224.3991305247904,966.5732441190086
1533059898.342,325.16009689495706,1461.3953029308566,582.0077677572247,212.27616188800332,710.5458065059125
1533059898.345,385.3776701167144,1469.4911590676925,504.00368639325916,230.47303591760686,411.36893489879225
1533059898.349,728.6042721867431,1475.5640875062304,522.0055734755227,285.0512369319946,425.75011572612885
1533059898.353,728.6042721867431,1479.6140882464704,516.0090404406118,266.8543629023912,854.3811808273366
1533059898.357,620.2175732217573,1493.782872821844,480.0052662760845,278.98975261360107,1070.1342423094727
1533059898.361,547.9515525214711,1514.0245858357555,570.002413709872,315.3835006728082,978.0793670832808
1533059898.365,566.0180576965427,1503.9016566569778,582.0077677572247,291.11272125038806,874.5183688928165
1533059898.369,915.2750495485576,1493.782872821844,575.9989467447831,345.70334333919885,986.7104321844885
1533059898.373,981.5106804668575,1501.8787289586799,648.0064950738375,369.96170168719595,1211.0945587678323
1533059898.377,812.9064082801145,1497.82872821844,612.0027209093104,327.5064693095953,1055.753061482136
1533059898.381,602.1510680466857,1501.8787289586799,570.002413709872,303.2481109615982,1119.0396835416404
1533059898.3839998,505.80048447478526,1511.9975127938135,594.0008338270467,266.8543629023912,1029.859866178513
1533059898.3879998,758.7068927548999,1499.855801260382,659.9995611436597,303.2481109615982,722.0519294701847
1533059898.3920002,818.9244659766571,1493.782872821844,708.0086893555394,333.5679536279888,1003.972562386904
1533059898.3960001,620.2175732217573,1505.9245843552758,636.001141026485,285.0512369319946,1202.4634936666246
1533059898.4,427.52873816340013,1507.9516573972178,654.0030281087486,248.6574888727875,1084.5213146488238
1533059898.404,367.3111649416428,1497.82872821844,672.0049151910122,206.20225649518684,863.0122459285444
1533059898.408,620.2175732217573,1485.687016685008,606.0061878743993,145.56257116240562,1107.5335605773682
1533059898.4120002,728.6042721867431,1497.82872821844,654.0030281087486,200.1407721767933,1234.1068046963767
1533059898.4160001,578.0665051750716,1487.709944383306,690.0068022732759,285.0512369319946,972.3292513571519
1533059898.42,427.52873816340013,1483.659943643066,654.0030281087486,303.2481109615982,1208.219500904768
1533059898.424,343.2266020700286,1479.6140882464704,600.0096548394883,266.8543629023912,955.0671211547364
1533059898.427,560.0,1473.5411598079324,630.004607991574,254.73139426560397,900.4115641964398
1533059898.431,734.6223298832856,1483.659943643066,678.0014482259232,266.8543629023912,1101.7775533392248
1533059898.435,650.3201937899141,1463.4223759727986,666.0083821561012,376.0231860055895,1006.8476202499685
1533059898.439,499.78242677824267,1445.203590657185,654.0030281087486,400.28154435358664,1130.5458065059127
1533059898.4429998,373.3292226381854,1443.180662958887,659.9995611436597,351.7648276575924,900.4115641964398
1533059898.447,662.3686412684431,1455.3223744923189,636.001141026485,388.1585757167995,782.4634936666246
1533059898.451,975.4802906848712,1451.276519095723,558.00934764005,424.55232377600663,865.8873037916088
1533059898.455,867.0935917198855,1437.1077345203491,552.0005266276085,430.61380809440016,776.7133779404958
1533059898.4589999,626.2356309183,1426.9848053415715,600.0096548394883,394.220060035193,506.29886798804864
1533059898.4629998,415.4802906848712,1418.8889492047356,600.0096548394883,363.9002173688024,808.3566889702479
1533059898.467,572.0484474785289,1429.0118783835135,594.0008338270467,327.5064693095953,1202.4634936666246
1533059898.47,867.0935917198855,1439.130662218647,575.9989467447831,363.9002173688024,929.1798173631275
1533059898.474,716.555824708214,1439.130662218647,498.00715335834815,376.0231860055895,995.3414972856963
1533059898.478,493.76436908170007,1431.0348060818112,449.9980251464683,266.8543629023912,1162.1891175356648
1533059898.482,289.0270865448139,1431.0348060818112,558.00934764005,224.3991305247904,779.5884358035602
1533059898.486,337.208544373486,1429.0118783835135,624.0080749566629,200.1407721767933,989.5854900475529
1533059898.49,596.1330103501432,1439.130662218647,617.9992539442213,194.07928785839974,1096.027437613096
1533059898.494,596.1330103501432,1461.3953029308566,606.0061878743993,278.98975261360107,1228.356688970248
1533059898.498,427.52873816340013,1457.3494475342607,516.0090404406118,248.6574888727875,1521.7834448512392
1533059898.502,114.40475666152825,1429.0118783835135,474.0087332411735,194.07928785839974,1021.2346925893195
1533059898.506,156.55582470821406,1414.8430938081397,456.00684615890987,266.8543629023912,653.0151916845516
1533059898.5089998,602.1510680466857,1429.0118783835135,491.9983323459066,351.7648276575924,532.192063291672
1533059898.5129998,686.4532041400572,1439.130662218647,474.0087332411735,418.47841838319016,969.4541934940875
1533059898.5170002,602.1510680466857,1451.276519095723,408.0100059245606,551.9055998343857,1130.5458065059127
1533059898.5210001,517.8489319533143,1473.5411598079324,402.001184912119,564.0409895455957,842.8750578630644
1533059898.525,572.0484474785289,1469.4911590676925,474.0087332411735,515.5242728496015,937.8049909523208
1533059898.529,963.444175291786,1457.3494475342607,564.0058806749611,515.5242728496015,819.8628119345201
1533059898.533,1011.6133010350143,1471.5182321096345,594.0008338270467,467.0075561536073,791.0945587678324
1533059898.5370002,818.9244659766571,1483.659943643066,594.0008338270467,424.55232377600663,837.1249421369356
1533059898.5410001,596.1330103501432,1477.5870152045284,546.0039935926974,382.09709139840595,871.6433110297521
1533059898.545,529.8973794318432,1463.4223759727986,498.00715335834815,351.7648276575924,888.9054412321676
1533059898.549,836.9909711517287,1479.6140882464704,462.0033791938209,388.1585757167995,609.8598661785128
1533059898.552,855.0574763268003,1479.6140882464704,504.00368639325916,442.73677673118726,747.9451247738081
1533059898.556,656.3505835719004,1461.3953029308566,564.0058806749611,442.73677673118726,871.6433110297521
1533059898.56,439.56485355648533,1473.5411598079324,617.9992539442213,418.47841838319016,860.1371880654799
1533059898.564,325.16009689495706,1485.687016685008,612.0027209093104,394.220060035193,883.1494339940243
1533059898.5679998,590.1026205681568,1495.805800520142,510.00021942817017,376.0231860055895,943.5609981904641
1533059898.572,770.7553402334288,1493.782872821844,462.0033791938209,363.9002173688024,900.4115641964398
1533059898.576,614.1995155252147,1485.687016685008,444.0014921115573,315.3835006728082,796.8505660059757
1533059898.58,415.4802906848712,1495.805800520142,456.00684615890987,309.3095952799917,658.7653074106805
1533059898.5839999,289.0270865448139,1477.5870152045284,486.0017993109955,272.92826829520754,874.5183688928165
1533059898.5879998,547.9515525214711,1459.3723752325586,462.0033791938209,242.59600455439394,1104.6585027143037
1533059898.592,770.7553402334288,1463.4223759727986,449.9980251464683,285.0512369319946,952.192063291672
1533059898.595,686.4532041400572,1471.5182321096345,510.00021942817017,351.7648276575924,1029.859866178513
1533059898.599,547.9515525214711,1481.6370159447683,588.0043007921357,345.70334333919885,825.6129276606489
1533059898.603,433.54679585994273,1479.6140882464704,624.0080749566629,406.355449746403,808.3566889702479
1533059898.607,746.6707773618145,1471.5182321096345,636.001141026485,503.38888313839146,886.0244918570887
1533059898.611,1005.5952433384717,1485.687016685008,720.0017554253615,521.585757167995,796.8505660059757
1533059898.615,885.1600968949571,1475.5640875062304,750.0089965549778,576.1763792568057,837.1249421369356
1533059898.619,692.4712618365999,1449.253591397425,714.0052223904505,551.9055998343857,877.3993182678955
1533059898.623,487.74631138515747,1426.9848053415715,725.9982884602725,545.8441155159921,1096.027437613096
1533059898.627,674.4047566615283,1408.7701653696017,690.0068022732759,545.8441155159921,1211.0945587678323
1533059898.631,963.444175291786,1431.0348060818112,678.0014482259232,515.5242728496015,860.1371880654799
1533059898.6339998,818.9244659766571,1451.276519095723,552.0005266276085,436.6752924127937,865.8873037916088
1533059898.6379998,650.3201937899141,1453.299446794021,420.00307199438265,363.9002173688024,1144.9328788452638
1533059898.6420002,511.8308742567716,1451.276519095723,491.9983323459066,369.96170168719595,768.082312839288
1533059898.6460001,596.1330103501432,1439.130662218647,522.0055734755227,321.44498499120175,589.7226781130329
1533059898.65,909.2446597665712,1443.180662958887,516.0090404406118,297.18662664320465,845.7501157261289
1533059898.654,855.0574763268003,1437.1077345203491,432.0084260417352,303.2481109615982,978.0793670832808
1533059898.658,632.2536886148425,1412.8160207661977,408.0100059245606,266.8543629023912,900.4115641964398
1533059898.6620002,355.26271746311386,1404.7201646293618,462.0033791938209,260.7928785839975,753.6952404999369
1533059898.6660001,367.3111649416428,1422.9389499449755,504.00368639325916,260.7928785839975,537.9421790178008
1533059898.67,764.7372825368861,1422.9389499449755,606.0061878743993,230.47303591760686,537.9421790178008
1533059898.674,794.8399031050429,1414.8430938081397,767.9985956597108,266.8543629023912,1090.2714303749526
1533059898.677,614.1995155252147,1437.1077345203491,858.0080310710289,315.3835006728082,1326.1616799225687
1533059898.681,457.63135873155693,1459.3723752325586,833.9973229763237,339.6418590208053,863.0122459285444
1533059898.685,553.9819423034573,1459.3723752325586,696.0033353081868,376.0231860055895,491.91768716071203
1533059898.689,891.1781545914997,1463.4223759727986,600.0096548394883,400.28154435358664,891.7804990952321
1533059898.6929998,879.1420391984144,1463.4223759727986,642.0099620389266,418.47841838319016,1098.9024954761603
1533059898.697,764.7372825368861,1451.276519095723,696.0033353081868,509.450367456785,837.1249421369356
1533059898.701,626.2356309183,1457.3494475342607,642.0099620389266,485.1920091087879,831.3689348987922
1533059898.705,535.9154371283859,1455.3223744923189,617.9992539442213,351.7648276575924,978.0793670832808
1533059898.7089999,830.9729134551861,1447.226518355483,659.9995611436597,376.0231860055895,903.2866220595042
1533059898.7129998,945.3776701167144,1441.153589916945,612.0027209093104,467.0075561536073,578.2165551487607
1533059898.716,794.8399031050429,1459.3723752325586,672.0049151910122,551.9055998343857,828.4938770357278
1533059898.72,638.2840783968289,1475.5640875062304,648.0064950738375,588.2993478935928,874.5183688928165
1533059898.724,584.0845628716141,1471.5182321096345,594.0008338270467,539.7826311975986,753.6952404999369
1533059898.728,891.1781545914997,1487.709944383306,659.9995611436597,509.450367456785,1001.0975045238396
1533059898.732,981.5106804668575,1493.782872821844,659.9995611436597,503.38888313839146,799.7256238690401
1533059898.736,782.791455626514,1489.732872081604,630.004607991574,497.32739881999794,716.3018137440558
1533059898.74,608.1691257432284,1487.709944383306,648.0064950738375,485.1920091087879,868.7682531666877
1533059898.744,523.8669896498568,1481.6370159447683,624.0080749566629,473.06904047200084,865.8873037916088
1533059898.748,770.7553402334288,1483.659943643066,654.0030281087486,460.9336507607908,845.7501157261289
1533059898.752,951.3957278132569,1469.4911590676925,744.0001755425361,521.585757167995,707.6707486428481
1533059898.756,861.0755340233429,1449.253591397425,809.9989028591491,588.2993478935928,814.1068046963767
1533059898.7589998,740.6403875798283,1451.276519095723,804.002369824238,624.6930959527999,1144.9328788452638
1533059898.7629998,584.0845628716141,1431.0348060818112,756.0055295898887,624.6930959527999,926.2988679880486
1533059898.7670002,812.9064082801145,1420.9160222466776,750.0089965549778,515.5242728496015,886.0244918570887
1533059898.7710001,1083.8669896498568,1443.180662958887,780.0039497070634,473.06904047200084,1127.6707486428481
1533059898.775,921.2931072451001,1455.3223744923189,683.9979812608343,509.450367456785,1202.4634936666246
1533059898.779,722.5862144902004,1465.4453036710966,642.0099620389266,467.0075561536073,929.1798173631275
1533059898.783,553.9819423034573,1463.4223759727986,606.0061878743993,394.220060035193,713.4267558809914
1533059898.7870002,716.555824708214,1461.3953029308566,564.0058806749611,339.6418590208053,980.9603164583597
1533059898.7910001,1011.6133010350143,1479.6140882464704,672.0049151910122,382.09709139840595,983.8353743214241
1533059898.795,903.2266020700287,1473.5411598079324,678.0014482259232,418.47841838319016,1055.753061482136
1533059898.799,716.555824708214,1451.276519095723,600.0096548394883,418.47841838319016,1003.972562386904
1533059898.802,529.8973794318432,1445.203590657185,552.0005266276085,406.355449746403,903.2866220595042
1533059898.806,584.0845628716141,1439.130662218647,546.0039935926974,376.0231860055895,1096.027437613096
1533059898.81,891.1781545914997,1449.253591397425,588.0043007921357,454.87216644239726,983.8353743214241
1533059898.814,867.0935917198855,1457.3494475342607,606.0061878743993,515.5242728496015,860.1371880654799
1533059898.8179998,674.4047566615283,1459.3723752325586,606.0061878743993,460.9336507607908,842.8750578630644
1533059898.822,505.80048447478526,1469.4911590676925,606.0061878743993,424.55232377600663,1121.9147414047047
1533059898.826,602.1510680466857,1469.4911590676925,564.0058806749611,400.28154435358664,1009.7226781130329
1533059898.83,909.2446597665712,1471.5182321096345,564.0058806749611,418.47841838319016,586.8476202499685
1533059898.8339999,830.9729134551861,1469.4911590676925,642.0099620389266,400.28154435358664,932.0548752261919
1533059898.8379998,584.0845628716141,1463.4223759727986,708.0086893555394,266.8543629023912,1021.2346925893195
1533059898.841,367.3111649416428,1453.299446794021,786.0004827419745,224.3991305247904,814.1068046963767
1533059898.845,379.35961242017174,1437.1077345203491,780.0039497070634,218.33764620639684,837.1249421369356
1533059898.849,686.4532041400572,1443.180662958887,809.9989028591491,212.27616188800332,699.0396835416403
1533059898.853,728.6042721867431,1451.276519095723,906.0048713053782,303.2481109615982,535.0671211547364
1533059898.857,566.0180576965427,1439.130662218647,809.9989028591491,333.5679536279888,724.9328788452636
1533059898.861,391.395727813257,1439.130662218647,780.0039497070634,309.3095952799917,883.1494339940243
1533059898.865,439.56485355648533,1437.1077345203491,846.0026770236763,303.2481109615982,949.3170054286074
1533059898.869,800.8579608015856,1433.0577337801092,875.997630175762,309.3095952799917,799.7256238690401
1533059898.873,843.0090288482713,1443.180662958887,935.9998244574639,418.47841838319016,1038.4909312797206
1533059898.877,680.4351464435147,1443.180662958887,900.0083382704671,424.55232377600663,1044.246938517864
1533059898.881,481.7159216031711,1443.180662958887,864.00456410594,321.44498499120175,1104.6585027143037
1533059898.8839998,445.5952433384717,1453.299446794021,893.9995172580255,388.1585757167995,992.4664394226319
1533059898.8879998,812.9064082801145,1489.732872081604,948.0051785048164,485.1920091087879,808.3566889702479
1533059898.8920002,909.2446597665712,1495.805800520142,888.0029842231146,515.5242728496015,1067.2591844464082
1533059898.8960001,746.6707773618145,1479.6140882464704,809.9989028591491,533.7211468792051,960.8231283928797
1533059898.9,572.0484474785289,1475.5640875062304,858.0080310710289,521.585757167995,932.0548752261919
1533059898.904,439.56485355648533,1471.5182321096345,822.0042569065016,442.73677673118726,1001.0975045238396
1533059898.908,734.6223298832856,1497.82872821844,708.0086893555394,333.5679536279888,860.1371880654799
1533059898.9120002,939.3596124201717,1518.0704412323514,756.0055295898887,333.5679536279888,857.2621302024155
1533059898.9160001,770.7553402334288,1493.782872821844,762.0020626247998,363.9002173688024,793.9696166308968
1533059898.92,535.9154371283859,1475.5640875062304,720.0017554253615,285.0512369319946,460.2743761309599
1533059898.924,433.54679585994273,1465.4453036710966,786.0004827419745,254.73139426560397,842.8750578630644
1533059898.927,722.5862144902004,1469.4911590676925,828.0007899414127,260.7928785839975,1262.8750578630645
1533059898.931,933.3292226381855,1483.659943643066,732.0071094727141,260.7928785839975,1277.2621302024156
1533059898.935,843.0090288482713,1487.709944383306,612.0027209093104,297.18662664320465,1090.2714303749526
1533059898.939,662.3686412684431,1493.782872821844,672.0049151910122,230.47303591760686,995.3414972856963
1533059898.9429998,517.8489319533143,1493.782872821844,714.0052223904505,212.27616188800332,1021.2346925893195
1533059898.947,752.6888350583572,1461.3953029308566,756.0055295898887,278.98975261360107,986.7104321844885
1533059898.951,993.5467958599428,1457.3494475342607,858.0080310710289,376.0231860055895,900.4115641964398
1533059898.955,879.1420391984144,1483.659943643066,858.0080310710289,388.1585757167995,791.0945587678324
1533059898.9589999,668.3866989649857,1495.805800520142,828.0007899414127,327.5064693095953,900.4115641964398
1533059898.9629998,469.67980621008587,1503.9016566569778,786.0004827419745,278.98975261360107,975.2043092202163
1533059898.966,632.2536886148425,1495.805800520142,708.0086893555394,212.27616188800332,704.7956907797837
1533059898.97,909.2446597665712,1483.659943643066,683.9979812608343,224.3991305247904,699.0396835416403
1533059898.974,758.7068927548999,1479.6140882464704,654.0030281087486,285.0512369319946,891.7804990952321
1533059898.978,566.0180576965427,1463.4223759727986,617.9992539442213,291.11272125038806,701.9147414047048
1533059898.982,439.56485355648533,1475.5640875062304,617.9992539442213,242.59600455439394,1075.8902495476161
1533059898.986,560.0,1491.755799779902,594.0008338270467,194.07928785839974,710.5458065059125
1533059898.99,879.1420391984144,1495.805800520142,588.0043007921357,236.53452023600042,327.945124773808
1533059898.994,867.0935917198855,1501.8787289586799,654.0030281087486,285.0512369319946,894.6555569582965
1533059898.998,650.3201937899141,1497.82872821844,654.0030281087486,291.11272125038806,1136.3018137440558
1533059899.002,313.1116494164281,1489.732872081604,617.9992539442213,194.07928785839974,1208.219500904768
1533059899.006,295.05747632680027,1469.4911590676925,582.0077677572247,145.56257116240562,1136.3018137440558
1533059899.0089998,674.4047566615283,1447.226518355483,575.9989467447831,218.33764620639684,998.2165551487607
1533059899.0129998,734.6223298832856,1439.130662218647,558.00934764005,230.47303591760686,906.1616799225687
1533059899.0170002,547.9515525214711,1433.0577337801092,444.0014921115573,224.3991305247904,874.5183688928165
1533059899.0210001,295.05747632680027,1416.8660215064376,360.00087771268073,175.8824138287962,1026.9848083154484
1533059899.025,289.0270865448139,1412.8160207661977,354.0043446777697,169.82092951040258,1395.2043092202164
1533059899.029,572.0484474785289,1418.8889492047356,378.00276479494437,218.33764620639684,1185.2072549762236
1533059899.033,608.1691257432284,1435.0848068220512,318.0005705132425,194.07928785839974,891.7804990952321
1533059899.0370002,469.67980621008587,1445.203590657185,222.00689004454392,194.07928785839974,900.4115641964398
1533059899.0410001,301.07553402334287,1445.203590657185,198.00846992736928,230.47303591760686,1067.2591844464082
1533059899.045,283.0090288482713,1443.180662958887,210.00153599719133,260.7928785839975,989.5854900475529
1533059899.049,584.0845628716141,1439.130662218647,288.00561736115685,242.59600455439394,756.5761898750158
1533059899.052,656.3505835719004,1437.1077345203491,299.9986834309789,188.0178035400062,822.7378697975845
1533059899.056,475.69786390662847,1429.0118783835135,252.00184319662958,175.8824138287962,1096.027437613096
1533059899.06,373.3292226381854,1431.0348060818112,228.00342307945493,218.33764620639684,831.3689348987922
1533059899.064,276.9909711517287,1418.8889492047356,216.01035700963288,230.47303591760686,871.6433110297521
1533059899.0679998,505.80048447478526,1408.7701653696017,294.00215039606786,206.20225649518684,1277.2621302024156
1533059899.072,662.3686412684431,1404.7201646293618,341.99899063041715,181.94389814718974,949.3170054286074
1533059899.076,529.8973794318432,1410.7930930678997,276.0002633138042,200.1407721767933,776.7133779404958
1533059899.08,397.4137855097996,1404.7201646293618,341.99899063041715,188.0178035400062,978.0793670832808
1533059899.0839999,331.17815459149966,1400.674309232766,456.00684615890987,145.56257116240562,966.5732441190086
1533059899.0879998,596.1330103501432,1420.9160222466776,438.0049590766463,181.94389814718974,860.1371880654799
1533059899.091,746.6707773618145,1420.9160222466776,420.00307199438265,212.27616188800332,747.9451247738081
1533059899.095,511.8308742567716,1414.8430938081397,372.00623176003336,163.74702411758616,802.6006817321045
1533059899.099,289.0270865448139,1410.7930930678997,390.008118842297,103.10733878480488,1055.753061482136
1533059899.103,132.47126183659987,1396.624308492526,390.008118842297,103.10733878480488,888.9054412321676
1533059899.107,367.3111649416428,1412.8160207661977,282.0090843262458,121.29179173998551,592.6036274881118
1533059899.111,590.1026205681568,1424.9618776432735,233.99995611436597,36.39374805920712,906.1616799225687
1533059899.115,433.54679585994273,1406.7472376713038,258.01066420907114,0.0,1380.8231283928797
1533059899.119,337.208544373486,1392.5784530959302,318.0005705132425,97.03343339198831,1242.7378697975844
1533059899.123,234.83990310504294,1368.2867393417787,383.9992978298554,188.0178035400062,1067.2591844464082
1533059899.127,427.52873816340013,1368.2867393417787,354.0043446777697,248.6574888727875,1041.3718806547995
1533059899.131,680.4351464435147,1384.4825969590943,324.00939152568407,333.5679536279888,676.027437613096
1533059899.1339998,572.0484474785289,1378.4096685205564,294.00215039606786,357.8263119759859,566.7104321844885
1533059899.1379998,433.54679585994273,1378.4096685205564,240.00877712680753,309.3095952799917,664.5213146488238
1533059899.1420002,258.92446597665713,1392.5784530959302,312.00403747833144,315.3835006728082,957.9421790178008
1533059899.1460001,421.51068046685754,1424.9618776432735,336.0024575955061,297.18662664320465,883.1494339940243
1533059899.15,800.8579608015856,1449.253591397425,378.00276479494437,321.44498499120175,871.6433110297521
1533059899.154,746.6707773618145,1445.203590657185,491.9983323459066,345.70334333919885,1271.5061229642722
1533059899.158,547.9515525214711,1441.153589916945,558.00934764005,321.44498499120175,1357.8049909523208
1533059899.1620002,361.2931072451002,1443.180662958887,630.004607991574,291.11272125038806,1239.86281193452
1533059899.1660001,481.7159216031711,1437.1077345203491,654.0030281087486,278.98975261360107,871.6433110297521
1533059899.17,843.0090288482713,1447.226518355483,588.0043007921357,291.11272125038806,926.2988679880486
1533059899.1729999,824.9425236731997,1447.226518355483,552.0005266276085,285.0512369319946,926.2988679880486
1533059899.177,692.4712618365999,1445.203590657185,552.0005266276085,272.92826829520754,606.9848083154484
1533059899.181,469.67980621008587,1453.299446794021,491.9983323459066,254.73139426560397,707.6707486428481
1533059899.185,415.4802906848712,1437.1077345203491,491.9983323459066,242.59600455439394,791.0945587678324
1533059899.189,722.5862144902004,1412.8160207661977,498.00715335834815,230.47303591760686,624.2469385178639
1533059899.1929998,764.7372825368861,1410.7930930678997,462.0033791938209,230.47303591760686,716.3018137440558
1533059899.197,608.1691257432284,1422.9389499449755,396.004651877208,266.8543629023912,716.3018137440558
1533059899.201,409.46223298832854,1424.9618776432735,312.00403747833144,285.0512369319946,727.807936708328
1533059899.205,421.51068046685754,1412.8160207661977,336.0024575955061,254.73139426560397,1012.6036274881118
1533059899.2089999,722.5862144902004,1394.6013807942281,360.00087771268073,248.6574888727875,1142.0519294701846
1533059899.2129998,740.6403875798283,1396.624308492526,306.00750444342043,285.0512369319946,1116.164625678576
1533059899.216,620.2175732217573,1402.697236931064,390.008118842297,297.18662664320465,1021.2346925893195
1533059899.22,499.78242677824267,1408.7701653696017,504.00368639325916,297.18662664320465,972.3292513571519
1533059899.224,445.5952433384717,1398.647236190824,414.00653895947164,309.3095952799917,842.8750578630644
1533059899.228,764.7372825368861,1406.7472376713038,438.0049590766463,333.5679536279888,923.4238101249842
1533059899.232,849.0270865448139,1406.7472376713038,522.0055734755227,376.0231860055895,1119.0396835416404
1533059899.236,656.3505835719004,1402.697236931064,575.9989467447831,424.55232377600663,1032.7408155535918
1533059899.24,457.63135873155693,1392.5784530959302,624.0080749566629,418.47841838319016,768.082312839288
1533059899.244,349.24465976657126,1386.5055246573922,540.0074605577864,394.220060035193,722.0519294701847
1533059899.248,674.4047566615283,1410.7930930678997,510.00021942817017,357.8263119759859,1026.9848083154484
1533059899.252,861.0755340233429,1426.9848053415715,552.0005266276085,321.44498499120175,1081.6462567857593
1533059899.256,728.6042721867431,1433.0577337801092,617.9992539442213,339.6418590208053,972.3292513571519
1533059899.2589998,566.0180576965427,1443.180662958887,630.004607991574,291.11272125038806,903.2866220595042
1533059899.2629998,421.51068046685754,1437.1077345203491,617.9992539442213,224.3991305247904,995.3414972856963
1533059899.2670002,650.3201937899141,1433.0577337801092,642.0099620389266,206.20225649518684,1173.695240499937
1533059899.2710001,867.0935917198855,1451.276519095723,738.0036425076252,278.98975261360107,923.4238101249842
1533059899.275,650.3201937899141,1451.276519095723,828.0007899414127,254.73139426560397,627.1219963809283
1533059899.279,433.54679585994273,1445.203590657185,864.00456410594,206.20225649518684,1052.8780036190717
1533059899.283,325.16009689495706,1447.226518355483,912.0014043402892,224.3991305247904,1067.2591844464082
1533059899.2870002,505.80048447478526,1441.153589916945,1001.9985517740768,224.3991305247904,799.7256238690401
1533059899.2910001,776.7733979299713,1433.0577337801092,1080.0026331380423,266.8543629023912,883.1494339940243
1533059899.295,728.6042721867431,1429.0118783835135,1038.002325938604,394.220060035193,1093.1523797500315
1533059899.2979999,650.3201937899141,1424.9618776432735,948.0051785048164,473.06904047200084,1064.384126583344
1533059899.302,511.8308742567716,1412.8160207661977,959.9982445746385,400.28154435358664,681.7775533392248
1533059899.306,620.2175732217573,1410.7930930678997,942.0086454699054,388.1585757167995,727.807936708328
1533059899.31,927.3111649416428,1424.9618776432735,930.0032914225528,454.87216644239726,978.0793670832808
1533059899.314,855.0574763268003,1435.0848068220512,888.0029842231146,497.32739881999794,868.7682531666877
1533059899.3179998,662.3686412684431,1441.153589916945,822.0042569065016,503.38888313839146,1093.1523797500315
1533059899.322,475.69786390662847,1437.1077345203491,792.009303754416,491.2659145016044,975.2043092202163
1533059899.326,602.1510680466857,1439.130662218647,767.9985956597108,545.8441155159921,816.9877540714556
1533059899.33,873.1239815018719,1449.253591397425,744.0001755425361,600.4347376048028,1156.4390018095357
1533059899.3339999,758.7068927548999,1463.4223759727986,708.0086893555394,545.8441155159921,986.7104321844885
1533059899.3379998,626.2356309183,1467.4682313693945,701.9998683430979,515.5242728496015,638.6281193452005
1533059899.341,451.61330103501433,1471.5182321096345,617.9992539442213,533.7211468792051,860.1371880654799
1533059899.345,445.5952433384717,1487.709944383306,594.0008338270467,527.6472414863886,851.5061229642722
1533059899.349,704.5197093151288,1495.805800520142,648.0064950738375,485.1920091087879,647.2591844464083
1533059899.353,638.2840783968289,1487.709944383306,575.9989467447831,418.47841838319016,719.1768716071203
1533059899.357,487.74631138515747,1481.6370159447683,510.00021942817017,406.355449746403,854.3811808273366
1533059899.361,403.44417529178594,1495.805800520142,552.0005266276085,448.81068212400373,1044.246938517864
1533059899.365,463.6494164280995,1493.782872821844,582.0077677572247,467.0075561536073,894.6555569582965
1533059899.369,824.9425236731997,1473.5411598079324,600.0096548394883,503.38888313839146,583.972562386904
1533059899.373,939.3596124201717,1485.687016685008,600.0096548394883,618.6316116344063,489.0426292976476
1533059899.377,740.6403875798283,1503.9016566569778,588.0043007921357,557.9795052272021,753.6952404999369
1533059899.381,517.8489319533143,1495.805800520142,600.0096548394883,400.28154435358664,1179.4512477380802
1533059899.3839998,505.80048447478526,1495.805800520142,575.9989467447831,376.0231860055895,960.8231283928797
1533059899.3879998,830.9729134551861,1501.8787289586799,582.0077677572247,400.28154435358664,747.9451247738081
1533059899.3920002,909.2446597665712,1491.755799779902,654.0030281087486,436.6752924127937,946.4360560535285
1533059899.3960001,734.6223298832856,1477.5870152045284,654.0030281087486,497.32739881999794,1084.5213146488238
1533059899.4,566.0180576965427,1463.4223759727986,540.0074605577864,460.9336507607908,1012.6036274881118
1533059899.404,541.9334948249284,1449.253591397425,504.00368639325916,442.73677673118726,765.2072549762236
1533059899.408,855.0574763268003,1453.299446794021,617.9992539442213,473.06904047200084,989.5854900475529
1533059899.4120002,957.4261175952433,1465.4453036710966,654.0030281087486,454.87216644239726,1035.615873416656
1533059899.4160001,704.5197093151288,1463.4223759727986,570.002413709872,357.8263119759859,805.475739595169
1533059899.42,493.76436908170007,1459.3723752325586,498.00715335834815,291.11272125038806,635.7530614821361
1533059899.4229999,379.35961242017174,1459.3723752325586,516.0090404406118,315.3835006728082,371.0945587678323
1533059899.427,608.1691257432284,1437.1077345203491,522.0055734755227,339.6418590208053,923.4238101249842
1533059899.431,849.0270865448139,1431.0348060818112,552.0005266276085,448.81068212400373,1176.5761898750159
1533059899.435,722.5862144902004,1431.0348060818112,552.0005266276085,442.73677673118726,768.082312839288
1533059899.439,457.63135873155693,1433.0577337801092,504.00368639325916,303.2481109615982,745.0700669107435
1533059899.4429998,252.9064082801145,1441.153589916945,449.9980251464683,272.92826829520754,914.7927450237764
1533059899.447,572.0484474785289,1431.0348060818112,444.0014921115573,321.44498499120175,963.6981862559442
1533059899.451,891.1781545914997,1441.153589916945,594.0008338270467,357.8263119759859,946.4360560535285
1533059899.455,746.6707773618145,1443.180662958887,630.004607991574,376.0231860055895,943.5609981904641
1533059899.4589999,602.1510680466857,1441.153589916945,642.0099620389266,357.8263119759859,1110.4086184404325
1533059899.4629998,463.6494164280995,1453.299446794021,708.0086893555394,369.96170168719595,1104.6585027143037
1533059899.466,632.2536886148425,1467.4682313693945,756.0055295898887,436.6752924127937,667.3963725118882
1533059899.47,933.3292226381855,1481.6370159447683,767.9985956597108,485.1920091087879,759.4512477380802
1533059899.474,867.0935917198855,1471.5182321096345,767.9985956597108,491.2659145016044,960.8231283928797
1533059899.478,710.5377670116715,1461.3953029308566,798.005836789327,424.55232377600663,653.0151916845516
1533059899.482,535.9154371283859,1465.4453036710966,846.0026770236763,357.8263119759859,644.3841265833438
1533059899.486,674.4047566615283,1471.5182321096345,864.00456410594,333.5679536279888,687.5335605773681
1533059899.49,999.5771856419291,1489.732872081604,912.0014043402892,382.09709139840595,1061.5090687202794
1533059899.494,975.4802906848712,1516.0475135340535,912.0014043402892,436.6752924127937,1268.6310651012077
1533059899.498,849.0270865448139,1518.0704412323514,875.997630175762,448.81068212400373,1064.384126583344
1533059899.502,620.2175732217573,1485.687016685008,882.0064511882035,369.96170168719595,1110.4086184404325
1533059899.505,566.0180576965427,1463.4223759727986,888.0029842231146,285.0512369319946,989.5854900475529
1533059899.5089998,855.0574763268003,1457.3494475342607,870.0010971408509,266.8543629023912,586.8476202499685
1533059899.5129998,824.9425236731997,1451.276519095723,792.009303754416,303.2481109615982,917.6678028868408
1533059899.5170002,590.1026205681568,1465.4453036710966,750.0089965549778,357.8263119759859,914.7927450237764
1533059899.5210001,361.2931072451002,1485.687016685008,816.0077238715907,315.3835006728082,779.5884358035602
1533059899.525,397.4137855097996,1483.659943643066,809.9989028591491,212.27616188800332,825.6129276606489
1533059899.529,746.6707773618145,1477.5870152045284,822.0042569065016,260.7928785839975,710.5458065059125
1533059899.533,794.8399031050429,1501.8787289586799,816.0077238715907,357.8263119759859,914.7927450237764
1533059899.5370002,656.3505835719004,1503.9016566569778,804.002369824238,357.8263119759859,1003.972562386904
1533059899.5410001,433.54679585994273,1471.5182321096345,804.002369824238,297.18662664320465,900.4115641964398
1533059899.545,403.44417529178594,1447.226518355483,851.9992100585873,321.44498499120175,808.3566889702479
1533059899.5479999,776.7733979299713,1453.299446794021,942.0086454699054,394.220060035193,1067.2591844464082
1533059899.552,843.0090288482713,1465.4453036710966,996.0020187391657,430.61380809440016,989.5854900475529
1533059899.556,722.5862144902004,1459.3723752325586,1014.0039058214294,509.450367456785,500.5487522619198
1533059899.56,650.3201937899141,1469.4911590676925,1001.9985517740768,497.32739881999794,687.5335605773681
1533059899.564,656.3505835719004,1479.6140882464704,1026.009259868782,509.450367456785,992.4664394226319
1533059899.5679998,1017.6313587315569,1493.782872821844,1043.998858973515,606.4962219231963,707.6707486428481
1533059899.572,1150.1149526536005,1493.782872821844,959.9982445746385,564.0409895455957,808.3566889702479
1533059899.576,1011.6133010350143,1481.6370159447683,959.9982445746385,533.7211468792051,1018.3537432142406
1533059899.58,843.0090288482713,1465.4453036710966,1008.0073727865183,479.13052479039436,1107.5335605773682
1533059899.5839999,644.3021360933715,1459.3723752325586,954.0017115397275,473.06904047200084,776.7133779404958
1533059899.5879998,897.208544373486,1471.5182321096345,978.0001316569021,467.0075561536073,647.2591844464083
1533059899.591,1035.6978639066285,1463.4223759727986,1067.9972790906897,363.9002173688024,1006.8476202499685
1533059899.595,806.8883505835719,1467.4682313693945,1134.008294384833,333.5679536279888,937.8049909523208
1533059899.599,523.8669896498568,1493.782872821844,1169.99978057183,266.8543629023912,932.0548752261919
1533059899.603,270.9729134551861,1489.732872081604,1050.0076799859567,139.48866576958906,1236.9877540714556
1533059899.607,590.1026205681568,1493.782872821844,959.9982445746385,181.94389814718974,1366.4360560535285
1533059899.611,885.1600968949571,1511.9975127938135,984.0089526693437,339.6418590208053,940.6859403273997
1533059899.615,698.4893195331425,1505.9245843552758,1008.0073727865183,369.96170168719595,1101.7775533392248
1533059899.619,511.8308742567716,1503.9016566569778,972.003598621991,315.3835006728082,1167.945124773808
1533059899.623,349.24465976657126,1487.709944383306,875.997630175762,309.3095952799917,629.9970542439928
1533059899.627,547.9515525214711,1467.4682313693945,798.005836789327,369.96170168719595,454.51836889281657
1533059899.63,861.0755340233429,1469.4911590676925,683.9979812608343,430.61380809440016,676.027437613096
1533059899.6339998,776.7733979299713,1467.4682313693945,642.0099620389266,454.87216644239726,975.2043092202163
1533059899.6379998,626.2356309183,1459.3723752325586,744.0001755425361,454.87216644239726,1236.9877540714556
1533059899.6420002,445.5952433384717,1469.4911590676925,756.0055295898887,394.220060035193,1277.2621302024156
1533059899.6460001,535.9154371283859,1463.4223759727986,714.0052223904505,357.8263119759859,1314.6555569582965
1533059899.65,836.9909711517287,1475.5640875062304,750.0089965549778,448.81068212400373,1337.6736943988553
1533059899.654,782.791455626514,1487.709944383306,744.0001755425361,515.5242728496015,1124.7956907797836
1533059899.658,614.1995155252147,1483.659943643066,738.0036425076252,509.450367456785,1081.6462567857593
1533059899.6620002,439.56485355648533,1465.4453036710966,683.9979812608343,491.2659145016044,978.0793670832808
1533059899.6660001,584.0845628716141,1457.3494475342607,552.0005266276085,491.2659145016044,874.5183688928165
1533059899.67,993.5467958599428,1485.687016685008,594.0008338270467,564.0409895455957,851.5061229642722
1533059899.6729999,969.4622329883285,1481.6370159447683,648.0064950738375,570.1024738639892,848.6310651012078
1533059899.677,770.7553402334288,1453.299446794021,533.9986395453449,460.9336507607908,632.8780036190717
1533059899.681,541.9334948249284,1461.3953029308566,474.0087332411735,448.81068212400373,825.6129276606489
1533059899.685,541.9334948249284,1467.4682313693945,522.0055734755227,467.0075561536073,1055.753061482136
1533059899.689,915.2750495485576,1457.3494475342607,558.00934764005,479.13052479039436,914.7927450237764
1533059899.6929998,987.5287381634001,1461.3953029308566,528.0021065104338,545.8441155159921,1058.6281193452005
1533059899.697,740.6403875798283,1453.299446794021,546.0039935926974,442.73677673118726,840.0
1533059899.701,505.80048447478526,1469.4911590676925,504.00368639325916,327.5064693095953,621.365989142785
1533059899.705,457.63135873155693,1493.782872821844,462.0033791938209,303.2481109615982,468.9054412321677
1533059899.7089999,776.7733979299713,1501.8787289586799,564.0058806749611,248.6574888727875,448.7682531666877
1533059899.7129998,776.7733979299713,1495.805800520142,642.0099620389266,218.33764620639684,854.3811808273366
1533059899.716,535.9154371283859,1477.5870152045284,666.0083821561012,218.33764620639684,972.3292513571519
1533059899.72,385.3776701167144,1471.5182321096345,606.0061878743993,242.59600455439394,1018.3537432142406
1533059899.724,349.24465976657126,1469.4911590676925,462.0033791938209,206.20225649518684,934.9299330892565
1533059899.728,734.6223298832856,1473.5411598079324,480.0052662760845,278.98975261360107,1248.4938770357278
1533059899.732,867.0935917198855,1481.6370159447683,575.9989467447831,345.70334333919885,1449.8657576905273
1533059899.736,632.2536886148425,1485.687016685008,659.9995611436597,266.8543629023912,1182.3263056011447
1533059899.74,415.4802906848712,1473.5411598079324,696.0033353081868,230.47303591760686,1035.615873416656
1533059899.744,397.4137855097996,1475.5640875062304,624.0080749566629,285.0512369319946,903.2866220595042
1533059899.748,734.6223298832856,1491.755799779902,630.004607991574,382.09709139840595,785.3444430417035
1533059899.752,861.0755340233429,1493.782872821844,546.0039935926974,424.55232377600663,641.5031772082649
1533059899.755,668.3866989649857,1479.6140882464704,467.99991222873194,382.09709139840595,831.3689348987922
1533059899.7589998,475.69786390662847,1475.5640875062304,588.0043007921357,345.70334333919885,782.4634936666246
1533059899.7629998,361.2931072451002,1477.5870152045284,612.0027209093104,363.9002173688024,891.7804990952321
1533059899.7670002,523.8669896498568,1463.4223759727986,642.0099620389266,339.6418590208053,1144.9328788452638
1533059899.7710001,650.3201937899141,1449.253591397425,701.9998683430979,260.7928785839975,1064.384126583344
1533059899.775,463.6494164280995,1439.130662218647,630.004607991574,242.59600455439394,618.4909312797206
1533059899.779,313.1116494164281,1443.180662958887,552.0005266276085,309.3095952799917,701.9147414047048
1533059899.783,156.55582470821406,1439.130662218647,498.00715335834815,315.3835006728082,949.3170054286074
1533059899.7870002,283.0090288482713,1429.0118783835135,617.9992539442213,242.59600455439394,733.558052434457
1533059899.7910001,553.9819423034573,1433.0577337801092,774.0074166721523,285.0512369319946,969.4541934940875
1533059899.795,445.5952433384717,1433.0577337801092,774.0074166721523,339.6418590208053,871.6433110297521
1533059899.7979999,325.16009689495706,1447.226518355483,780.0039497070634,333.5679536279888,670.2714303749526
1533059899.802,198.7068927548998,1465.4453036710966,756.0055295898887,327.5064693095953,1021.2346925893195
1533059899.806,349.24465976657126,1475.5640875062304,701.9998683430979,382.09709139840595,1047.1219963809283
1533059899.81,740.6403875798283,1489.732872081604,683.9979812608343,454.87216644239726,805.475739595169
1533059899.814,722.5862144902004,1481.6370159447683,744.0001755425361,479.13052479039436,664.5213146488238
1533059899.8179998,541.9334948249284,1473.5411598079324,744.0001755425361,479.13052479039436,1147.807936708328
1533059899.822,403.44417529178594,1471.5182321096345,630.004607991574,479.13052479039436,1331.917687160712
1533059899.826,523.8669896498568,1461.3953029308566,624.0080749566629,479.13052479039436,1041.3718806547995
1533059899.83,873.1239815018719,1485.687016685008,612.0027209093104,491.2659145016044,906.1616799225687
1533059899.8339999,867.0935917198855,1524.1433696708893,504.00368639325916,473.06904047200084,629.9970542439928
1533059899.8379998,722.5862144902004,1520.0933689306494,408.0100059245606,448.81068212400373,615.6158734166562
1533059899.841,481.7159216031711,1524.1433696708893,396.004651877208,454.87216644239726,644.3841265833438
1533059899.845,445.5952433384717,1524.1433696708893,432.0084260417352,418.47841838319016,1001.0975045238396
1533059899.849,740.6403875798283,1514.0245858357555,491.9983323459066,448.81068212400373,1104.6585027143037
1533059899.853,734.6223298832856,1499.855801260382,498.00715335834815,467.0075561536073,917.6678028868408
1533059899.857,529.8973794318432,1475.5640875062304,432.0084260417352,430.61380809440016,1078.7653074106804
1533059899.861,343.2266020700286,1471.5182321096345,390.008118842297,436.6752924127937,937.8049909523208
1533059899.865,252.9064082801145,1467.4682313693945,372.00623176003336,394.220060035193,540.8231283928797
1533059899.869,469.67980621008587,1473.5411598079324,402.001184912119,303.2481109615982,745.0700669107435
1533059899.873,523.8669896498568,1499.855801260382,420.00307199438265,285.0512369319946,1231.2317468333124
1533059899.877,295.05747632680027,1501.8787289586799,486.0017993109955,242.59600455439394,1049.9970542439928
1533059899.88,48.16912574322836,1489.732872081604,491.9983323459066,139.48866576958906,911.917687160712
1533059899.8839998,0.0,1499.855801260382,420.00307199438265,115.23030742159197,1087.3963725118883
1533059899.8879998,234.83990310504294,1495.805800520142,449.9980251464683,97.03343339198831,1107.5335605773682
1533059899.8920002,289.0270865448139,1473.5411598079324,456.00684615890987,90.97194907359487,1018.3537432142406
1533059899.8960001,174.62232988328563,1473.5411598079324,383.9992978298554,139.48866576958906,995.3414972856963
1533059899.9,54.187183439770976,1485.687016685008,396.004651877208,133.42718145119545,791.0945587678324
1533059899.904,0.0,1493.782872821844,444.0014921115573,151.6240554807991,788.2195009047679
1533059899.908,367.3111649416428,1511.9975127938135,491.9983323459066,194.07928785839974,785.3444430417035
1533059899.9120002,614.1995155252147,1522.1204419725914,570.002413709872,206.20225649518684,701.9147414047048
1533059899.9160001,572.0484474785289,1499.855801260382,582.0077677572247,254.73139426560397,972.3292513571519
1533059899.92,566.0180576965427,1495.805800520142,552.0005266276085,345.70334333919885,808.3566889702479
1533059899.9229999,493.76436908170007,1493.782872821844,480.0052662760845,406.355449746403,848.6310651012078
1533059899.927,710.5377670116715,1487.709944383306,383.9992978298554,430.61380809440016,1078.7653074106804
1533059899.931,987.5287381634001,1509.9745850955155,318.0005705132425,497.32739881999794,1078.7653074106804
1533059899.935,903.2266020700287,1514.0245858357555,318.0005705132425,557.9795052272021,863.0122459285444
1533059899.939,686.4532041400572,1501.8787289586799,408.0100059245606,564.0409895455957,814.1068046963767
1533059899.9429998,535.9154371283859,1511.9975127938135,438.0049590766463,564.0409895455957,828.4938770357278
1533059899.947,800.8579608015856,1522.1204419725914,372.00623176003336,521.585757167995,687.5335605773681
1533059899.951,1065.812816560229,1524.1433696708893,408.0100059245606,491.2659145016044,788.2195009047679
1533059899.955,927.3111649416428,1520.0933689306494,360.00087771268073,527.6472414863886,796.8505660059757
1533059899.9589999,686.4532041400572,1516.0475135340535,282.0090843262458,448.81068212400373,716.3018137440558
1533059899.9620001,433.54679585994273,1509.9745850955155,312.00403747833144,248.6574888727875,880.2743761309599
1533059899.966,620.2175732217573,1522.1204419725914,324.00939152568407,206.20225649518684,960.8231283928797
1533059899.97,885.1600968949571,1538.312154246263,318.0005705132425,218.33764620639684,917.6678028868408
