timestamps,TP9,AF7,AF8,TP10,Right AUX
1533057197.83,708.3785818060879,856.7020208870202,1115.25050332076,511.0627721551707,521.4774496159991
1533057197.833,579.1440424302893,834.4402549844026,1138.9850276537154,538.2538325413079,639.8680480387609
1533057197.8370001,349.40573088974077,878.94100094941,1044.0663689167611,456.70292088362197,845.6372351940622
1533057197.841,119.65761697211573,1001.3237488132374,972.8822345127624,271.8437953591951,873.8262976135251
1533057197.845,268.0361987782037,923.4417469144174,1063.0481568046653,212.0390511602012,1259.998556775424
1533057197.849,531.2888375431043,778.8200189882002,1063.0481568046653,342.52719066271646,1113.4246688315036
1533057197.853,454.7028654448704,890.0604909806049,1091.5256982852381,407.7656930387927,696.2403999793825
1533057197.857,306.3242836387824,856.7020208870202,1053.56212250943,342.52719066271646,758.2528735632184
1533057197.861,81.36953211153701,845.5597450155974,873.2205586281906,125.04324657507009,659.5998144425545
1533057197.865,215.38763150063892,1056.9667706496678,892.2023465160947,81.550911657686,744.161228802639
1533057197.869,521.7119151394213,1001.3237488132374,953.9004466248582,282.7224464637226,1011.9486624400804
1533057197.8720002,392.47737576362266,834.4402549844026,759.3201120033324,369.70711629849086,1076.7783103963714
1533057197.8760002,253.67571636121758,867.8215109182152,621.6948603429523,391.45328375718293,1023.2231328282047
1533057197.88,162.7390642230741,1034.70500474705,640.6766482308565,331.648539558189,865.3690015978558
1533057197.8839998,191.46002905704634,1090.3480265834803,764.0728484483836,195.72664187859147,840.0028864491521
1533057197.8879998,516.928355126118,1123.706496677065,830.5139657047648,304.46861392241465,1223.3579712385958
1533057197.8920002,526.4954751527246,1168.2072426420725,716.6135190799065,467.57043723778656,1082.4184320395857
1533057197.8960001,320.68476605576853,1168.2072426420725,640.6766482308565,386.0195255801006,239.59837121797847
1533057197.9,167.5226242363773,1223.8502644785026,569.4925138268577,228.35146044181099,194.49471676717695
1533057197.904,248.89215634791438,1179.3495185134952,602.7130724550483,173.9804744198994,775.167465594557
1533057197.908,622.2254896812477,1112.5870066458701,531.5289380510494,266.41003718211283,769.533116849647
1533057197.9120002,650.9464545152199,1179.3495185134952,379.66491565038297,418.64434414332015,245.23271996288852
1533057197.915,469.0633478618565,1079.2057507120576,355.9303913174276,478.44908834231404,532.7519200041235
1533057197.919,315.9012060424653,1023.5855147158552,379.66491565038297,347.9609488397988,938.655945569816
1533057197.9229999,244.10859633461115,1123.706496677065,545.767708791336,228.35146044181099,997.8512447811969
1533057197.927,521.7119151394213,1157.0877526108775,583.7312845671441,266.41003718211283,1166.9798463996701
1533057197.931,593.5045248472754,1034.70500474705,593.2173188623793,358.8284651939634,1135.9736096077522
1533057197.935,435.55882301458104,901.2027668520277,654.9154189711429,445.8242697790945,1000.6741920519561
1533057197.939,234.53167393092826,867.8215109182152,559.9967602341887,347.9609488397988,871.00912324107
1533057197.9429998,143.59502179278476,890.0604909806049,522.0331844583806,157.66806513828962,933.0215968249059
1533057197.947,473.84690787515973,801.05899905059,683.3929604517159,206.60529298311891,873.8262976135251
1533057197.951,612.6485672775648,734.3192730231927,844.7430171476176,375.1408744755731,820.2711200453585
1533057197.955,421.1983405975949,845.5597450155974,892.2023465160947,369.70711629849086,842.8200608216072
1533057197.958,196.24358907034957,834.4402549844026,730.852289820193,260.9651442546676,1102.1501984433792
1533057197.9620001,138.81146177948153,812.2012749220128,664.4111725638118,233.78521861889328,1268.4558527910933
1533057197.966,497.78431269582876,845.5597450155974,721.3565362275241,380.58576740301834,1096.510076800165
1533057197.97,655.7300145285232,856.7020208870202,740.3383241154282,549.1213488954726,715.9721663831762
1533057197.974,497.78431269582876,945.7035128170352,844.7430171476176,576.3124092816098,746.9784031750941
1533057197.978,301.5407236254792,1012.4660246846603,778.3018998912364,467.57043723778656,1144.4309056234215
1533057197.982,220.17119151394212,1123.706496677065,759.3201120033324,434.945618674567,1161.34549765476
1533057197.986,550.4328799733936,1090.3480265834803,968.1392173651448,505.6290139780884,1071.1439616514613
1533057197.99,722.7390642230741,990.2042587820426,1010.8458102885705,565.4337581770823,904.832534405443
1533057197.994,536.0723975564074,1068.0862606808626,1072.5439103973342,641.550911657686,1121.8819648471729
1533057197.9970002,358.9728509163472,1112.5870066458701,1048.8093860643787,532.8089396138628,1020.4059584557497
1533057198.0010002,239.31523394423147,1090.3480265834803,949.1574294772406,326.2147813811067,577.8498015566208
1533057198.005,531.2888375431043,1056.9667706496678,1034.580334621526,391.45328375718293,600.4045152311736
1533057198.0089998,832.819758791507,979.0847687508477,991.8640224006665,554.5662418229177,893.5580640173187
1533057198.0129998,665.2971345551297,912.3222568832226,816.2751949644783,560.0,1237.4496159991752
1533057198.0170002,497.78431269582876,945.7035128170352,650.1724018235253,511.0627721551707,1006.3085407968662
1533057198.0210001,263.2526387649005,1001.3237488132374,607.4560896026659,315.33613027657924,746.9784031750941
1533057198.025,411.6312205709885,1112.5870066458701,673.8972068590471,244.66386972342076,983.7596000206175
1533057198.029,808.8921563479144,1257.231520412315,707.1177654872376,467.57043723778656,817.4481727745992
1533057198.033,727.5226242363773,1268.3510104435102,749.8340777080971,554.5662418229177,761.0758208339777
1533057198.0370002,555.2164399866967,1234.9697545096976,697.6317311920025,483.8828465193963,845.6372351940622
1533057198.04,325.4781284461482,1234.9697545096976,559.9967602341887,375.1408744755731,1110.6074944590484
1533057198.044,368.5497733200301,1190.46900854469,673.8972068590471,342.52719066271646,1048.5892479769084
1533057198.0479999,694.0180993891018,1179.3495185134952,759.3201120033324,407.7656930387927,789.2591103551364
1533057198.052,655.7300145285232,1234.9697545096976,659.6584361187605,473.0041954148689,1144.4309056234215
1533057198.056,488.2073902921458,1223.8502644785026,631.1906139356212,478.44908834231404,1231.8152672542653
1533057198.06,296.75716361217593,1223.8502644785026,455.5920672019994,337.0822977352713,1073.9611360239162
1533057198.064,397.27073815400234,1190.46900854469,379.66491565038297,320.7810232040244,820.2711200453585
1533057198.0679998,679.6576169721158,1134.8487725484877,550.5107259389536,445.8242697790945,848.4544095665171
1533057198.072,569.5769224036829,1045.824494778245,645.4293846759077,511.0627721551707,1158.5225503840009
1533057198.076,411.6312205709885,1045.824494778245,645.4293846759077,483.8828465193963,952.7533632286995
1533057198.08,248.89215634791438,1079.2057507120576,555.2537430865711,309.902372099497,684.9659295912581
1533057198.083,272.81975879150696,1134.8487725484877,522.0331844583806,293.58996281788717,696.2403999793825
1533057198.0870001,641.3695321115371,1223.8502644785026,669.1541897114295,462.1366790607043,513.0201536003299
1533057198.091,603.0814472509584,1268.3510104435102,821.0182121120959,483.8828465193963,614.496159991753
1533057198.095,354.18929090304397,1234.9697545096976,787.7976534839053,380.58576740301834,1048.5892479769084
1533057198.099,224.9645539043218,1190.46900854469,569.4925138268577,260.9651442546676,730.0695840420597
1533057198.103,224.9645539043218,1168.2072426420725,593.2173188623793,201.16040005567376,710.3378176382661
1533057198.107,622.2254896812477,1145.9682625796827,740.3383241154282,331.648539558189,611.6789856192979
1533057198.111,756.2435890703496,1090.3480265834803,825.7612292597136,462.1366790607043,453.824854388949
1533057198.115,502.56787270913196,990.2042587820426,925.4229051442853,424.0781023204024,1119.0590175764137
1533057198.119,311.1176460291621,912.3222568832226,844.7430171476176,266.41003718211283,1279.7303231792175
1533057198.1220002,272.81975879150696,867.8215109182152,797.2934070765742,222.9065675143658,980.9424256481625
1533057198.1260002,560.0,823.3207649532077,759.3201120033324,282.7224464637226,490.47121282408125
1533057198.13,660.5135745418264,712.0575071205751,740.3383241154282,342.52719066271646,715.9721663831762
1533057198.1339998,483.4238302788426,545.1740132917402,811.522458519427,326.2147813811067,1226.175145611051
1533057198.1379998,344.6221708764375,489.5309914553099,702.37474833962,163.10182331537186,1130.3392608628421
1533057198.1420002,248.89215634791438,511.7927573579276,626.4378774905699,27.179925635774364,1042.9548992319983
1533057198.1460001,469.0633478618565,445.03024549030243,697.6317311920025,65.23850237607623,913.2898304211124
1533057198.15,583.937404820669,433.9107554591076,659.6584361187605,179.41423259698163,769.533116849647
1533057198.154,459.4864254581736,534.0317374203174,645.4293846759077,239.21897679597558,755.4356991907633
1533057198.158,330.2616884594514,567.41299335413,569.4925138268577,119.60948839798779,710.3378176382661
1533057198.1620002,172.315986626757,678.6762511867626,626.4378774905699,0.0,535.5690943765785
1533057198.165,449.9193054315672,789.9395090193951,707.1177654872376,32.624818563219534,958.3877119736096
1533057198.169,737.0995466400602,967.9424928794249,726.0995533751418,119.60948839798779,1133.156435235297
1533057198.1729999,603.0814472509584,1079.2057507120576,778.3018998912364,146.7894140337621,955.5705376011546
1533057198.177,440.34238302788424,1012.4660246846603,607.4560896026659,86.98466983476825,1028.8574815731147
1533057198.181,282.39668119518984,1045.824494778245,564.74949667924,0.0,1006.3085407968662
1533057198.185,516.928355126118,1257.231520412315,716.6135190799065,59.804744198993895,1085.2356064120406
1533057198.189,828.0361987782037,1301.7322663773227,702.37474833962,212.0390511602012,1164.1626720272152
1533057198.1929998,694.0180993891018,1234.9697545096976,593.2173188623793,212.0390511602012,1076.7783103963714
1533057198.197,531.2888375431043,1335.1135223111353,488.81262583019,135.92189767959755,918.9241791660223
1533057198.201,368.5497733200301,1412.9955242099552,503.05139657047647,65.23850237607623,1000.6741920519561
1533057198.205,545.6395175830139,1524.2587820425879,616.9518431953347,130.4881395025153,969.6621823617339
1533057198.208,885.4683260690717,1546.4977621049777,721.3565362275241,342.52719066271646,1076.7783103963714
1533057198.2120001,799.3152339442315,1513.1165061711652,759.3201120033324,364.27335812140853,1000.6741920519561
1533057198.216,574.3604824169861,1435.2345042723452,645.4293846759077,179.41423259698163,1034.497603216329
1533057198.22,373.3333333333333,1368.4947782449478,602.7130724550483,5.433758177082297,1099.32725117262
1533057198.224,469.0633478618565,1357.352502373525,716.6135190799065,16.312409281609767,690.6060512344725
1533057198.228,761.0271490836528,1246.0892445408924,735.5953069678106,190.29288370150917,476.3737951651977
1533057198.232,708.3785818060879,1056.9667706496678,711.8607826348552,288.1562046408049,577.8498015566208
1533057198.236,502.56787270913196,1090.3480265834803,669.1541897114295,228.35146044181099,687.7831039637132
1533057198.24,311.1176460291621,1190.46900854469,659.6584361187605,114.17573022090555,854.0945312097315
1533057198.244,416.4147805842917,1079.2057507120576,854.2387707402864,108.7419720438232,938.655945569816
1533057198.2470002,813.6757163612176,856.7020208870202,1001.3597759933353,304.46861392241465,927.3814751816917
1533057198.2510002,689.2345393757986,712.0575071205751,944.4046930321894,342.52719066271646,842.8200608216072
1533057198.255,382.9102557370162,845.5597450155974,797.2934070765742,184.847990774064,825.9054687902685
1533057198.2589998,234.53167393092826,934.5840227858403,764.0728484483836,125.04324657507009,1110.6074944590484
1533057198.2629998,344.6221708764375,912.3222568832226,792.540670631523,152.23430696120732,783.6247616102263
1533057198.2670002,751.4600290570463,912.3222568832226,825.7612292597136,239.21897679597558,521.4774496159991
1533057198.2710001,703.5950217927848,878.94100094941,830.5139657047648,293.58996281788717,721.6122880263904
1533057198.275,497.78431269582876,1001.3237488132374,844.7430171476176,369.70711629849086,749.8013504458534
1533057198.279,363.76621330672685,1056.9667706496678,844.7430171476176,293.58996281788717,876.6434719859801
1533057198.283,392.47737576362266,1168.2072426420725,759.3201120033324,190.29288370150917,1195.168908819133
1533057198.2870002,804.1085963346111,1323.9712464397126,740.3383241154282,315.33613027657924,1071.1439616514613
1533057198.29,794.5316739309283,1179.3495185134952,673.8972068590471,375.1408744755731,583.4899231998351
1533057198.294,540.8559575697107,1134.8487725484877,669.1541897114295,353.39470701688106,763.8929952064326
1533057198.2979999,411.6312205709885,1212.730774447308,583.7312845671441,337.0822977352713,777.984639967012
1533057198.302,301.5407236254792,990.2042587820426,616.9518431953347,304.46861392241465,842.8200608216072
1533057198.306,588.7209648339723,778.8200189882002,716.6135190799065,337.0822977352713,1104.9673728158343
1533057198.31,694.0180993891018,867.8215109182152,626.4378774905699,331.648539558189,1147.2480799958764
1533057198.314,459.4864254581736,934.5840227858403,616.9518431953347,271.8437953591951,1042.9548992319983
1533057198.3179998,315.9012060424653,867.8215109182152,721.3565362275241,277.2775535362774,854.0945312097315
1533057198.322,263.2526387649005,856.7020208870202,816.2751949644783,212.0390511602012,834.3627648059378
1533057198.326,603.0814472509584,878.94100094941,901.6981001087636,239.21897679597558,910.4726560486573
1533057198.329,813.6757163612176,912.3222568832226,972.8822345127624,418.64434414332015,482.0139168084119
1533057198.333,665.2971345551297,956.82300284823,958.6434637724759,511.0627721551707,566.5753311684965
1533057198.3370001,536.0723975564074,979.0847687508477,821.0182121120959,521.9414232596981,1226.175145611051
1533057198.341,373.3333333333333,1012.4660246846603,797.2934070765742,396.8870419342652,1079.5954847688263
1533057198.345,574.3604824169861,956.82300284823,987.1210052530489,434.945618674567,693.4232256069275
1533057198.349,789.748113917625,912.3222568832226,1063.0481568046653,598.0585767403019,456.64202876140405
1533057198.353,627.009049694551,1001.3237488132374,1096.2687154328557,570.8675163541646,403.08685119323746
1533057198.357,416.4147805842917,912.3222568832226,1072.5439103973342,440.3905116020122,825.9054687902685
1533057198.361,263.2526387649005,912.3222568832226,996.6070395482841,326.2147813811067,969.6621823617339
1533057198.365,545.6395175830139,1123.706496677065,1006.1027931409529,424.0781023204024,735.7039327869697
1533057198.369,828.0361987782037,1079.2057507120576,1001.3597759933353,630.6833953035214,823.0882944178135
1533057198.3720002,636.5859720982338,934.5840227858403,1025.084581028857,576.3124092816098,859.7346528529457
1533057198.3760002,449.9193054315672,956.82300284823,1025.084581028857,424.0781023204024,608.8560383485387
1533057198.38,296.75716361217593,979.0847687508477,1029.8275981764746,315.33613027657924,814.6309984021442
1533057198.3839998,516.928355126118,1012.4660246846603,1172.2055862819059,342.52719066271646,845.6372351940622
1533057198.3879998,904.6221708764375,1068.0862606808626,1252.8854742785736,500.1952558010061,800.5393536415648
1533057198.3920002,770.6040714873357,1056.9667706496678,1129.4892740610464,521.9414232596981,1068.321014380702
1533057198.3960001,564.7933623903797,1012.4660246846603,1129.4892740610464,451.2580279561768,902.015360032988
1533057198.4,339.8288084860579,934.5840227858403,1233.893967093236,293.58996281788717,935.838771197361
1533057198.404,387.69381575031946,945.7035128170352,1248.1327378335222,260.9651442546676,1316.3766816143498
1533057198.408,761.0271490836528,956.82300284823,1324.0696086825724,402.33193486171035,921.7471264367816
1533057198.4120002,670.0904969455092,934.5840227858403,1347.7944137180941,429.51186049748475,656.7768671717953
1533057198.415,454.7028654448704,1068.0862606808626,1224.4079327980005,375.1408744755731,780.8075872377713
1533057198.419,282.39668119518984,1201.588498575885,1162.7098326892371,277.2775535362774,933.0215968249059
1533057198.4229999,311.1176460291621,1234.9697545096976,1195.9303913174276,260.9651442546676,1023.2231328282047
1533057198.427,694.0180993891018,1312.8517564085175,1309.8308379422858,440.3905116020122,715.9721663831762
1533057198.431,737.0995466400602,1390.7337583073377,1314.5738550899034,576.3124092816098,814.6309984021442
1533057198.435,560.0,1323.9712464397126,1157.9668155416193,554.5662418229177,1076.7783103963714
1533057198.439,354.18929090304397,1190.46900854469,1020.3415638812395,391.45328375718293,944.2960672130303
1533057198.4429998,258.46907875159724,1101.467516614675,991.8640224006665,299.0237209949695,980.9424256481625
1533057198.447,603.0814472509584,1023.5855147158552,991.8640224006665,396.8870419342652,1020.4059584557497
1533057198.451,646.1530921248403,934.5840227858403,1025.084581028857,505.6290139780884,1011.9486624400804
1533057198.454,421.1983405975949,990.2042587820426,991.8640224006665,434.945618674567,744.161228802639
1533057198.458,268.0361987782037,1134.8487725484877,930.1659222919029,271.8437953591951,786.4419359826813
1533057198.4620001,210.6040714873357,1179.3495185134952,944.4046930321894,179.41423259698163,639.8680480387609
1533057198.466,540.8559575697107,1157.0877526108775,1063.0481568046653,282.7224464637226,377.7149631462296
1533057198.47,550.4328799733936,1056.9667706496678,1186.4443570221924,353.39470701688106,710.3378176382661
1533057198.474,315.9012060424653,1034.70500474705,1195.9303913174276,326.2147813811067,854.0945312097315
1533057198.478,248.89215634791438,1101.467516614675,1025.084581028857,309.902372099497,631.4107520230916
1533057198.482,253.67571636121758,1223.8502644785026,911.1841344039988,239.21897679597558,766.7101695788876
1533057198.486,665.2971345551297,1157.0877526108775,1025.084581028857,353.39470701688106,1017.5830111849905
1533057198.49,818.4690787515973,1112.5870066458701,1025.084581028857,565.4337581770823,823.0882944178135
1533057198.494,560.0,1090.3480265834803,982.3682688079975,560.0,1042.9548992319983
1533057198.4970002,378.126695723713,867.8215109182152,915.93687084905,424.0781023204024,1127.516313592083
1533057198.5010002,258.46907875159724,678.6762511867626,934.9186587369542,391.45328375718293,896.3752383897737
1533057198.505,631.8024120849306,723.17699715177,1058.3051396570477,641.550911657686,1102.1501984433792
1533057198.5089998,928.5497733200301,867.8215109182152,1110.5074861731423,831.8437953591952,1037.3147775887842
1533057198.5129998,703.5950217927848,934.5840227858403,1067.8008932497164,782.9065675143659,862.5518272254008
1533057198.5170002,454.7028654448704,878.94100094941,968.1392173651448,663.297079116378,704.6976959950518
1533057198.5210001,291.9736035988727,867.8215109182152,944.4046930321894,527.3751814367805,913.2898304211124
1533057198.525,579.1440424302893,1012.4660246846603,1048.8093860643787,625.2385023760762,1195.168908819133
1533057198.529,875.9012060424653,1034.70500474705,1110.5074861731423,799.2189767959755,930.2044224524509
1533057198.533,627.009049694551,979.0847687508477,1129.4892740610464,739.4142325969817,817.4481727745992
1533057198.5370002,402.05429816730555,1045.824494778245,1077.2869275449518,668.7419720438232,1034.497603216329
1533057198.54,282.39668119518984,979.0847687508477,972.8822345127624,565.4337581770823,763.8929952064326
1533057198.544,497.78431269582876,878.94100094941,1082.0299446925694,576.3124092816098,648.319571156126
1533057198.5479999,794.5316739309283,890.0604909806049,1148.4710619489506,663.297079116378,758.2528735632184
1533057198.552,603.0814472509584,934.5840227858403,1134.2420105060978,625.2385023760762,591.9472192155043
1533057198.556,344.6221708764375,1134.8487725484877,1124.7462569134289,527.3751814367805,670.8742848306788
1533057198.56,186.66666666666666,1201.588498575885,1025.084581028857,369.70711629849086,763.8929952064326
1533057198.564,382.9102557370162,1123.706496677065,1105.7644690255247,364.27335812140853,704.6976959950518
1533057198.5679998,751.4600290570463,1079.2057507120576,1186.4443570221924,516.5076650826159,707.5148703675068
1533057198.572,641.3695321115371,979.0847687508477,1200.6734084650452,532.8089396138628,961.2106592443688
1533057198.576,397.27073815400234,979.0847687508477,1224.4079327980005,521.9414232596981,1141.6137312509663
1533057198.579,253.67571636121758,1001.3237488132374,1205.4261449100966,478.44908834231404,997.8512447811969
1533057198.583,430.77526300127784,1012.4660246846603,1352.5374308657117,440.3905116020122,780.8075872377713
1533057198.5870001,842.3966811951898,1134.8487725484877,1414.2355309744753,603.4923349173841,1150.0652543683316
1533057198.591,765.810709096956,1157.0877526108775,1338.308379422859,701.3556558566798,1262.8215040461832
1533057198.595,607.8650072642616,1001.3237488132374,1305.0878207946682,701.3556558566798,763.8929952064326
1533057198.599,421.1983405975949,1001.3237488132374,1233.893967093236,608.9260930944664,673.6914592031338
1533057198.603,402.05429816730555,1090.3480265834803,1290.8490500543817,494.75036287356096,687.7831039637132
1533057198.607,732.3061842496805,1068.0862606808626,1305.0878207946682,603.4923349173841,808.99087675893
1533057198.611,751.4600290570463,1101.467516614675,1186.4443570221924,750.2928837015091,1102.1501984433792
1533057198.615,560.0,1068.0862606808626,1134.2420105060978,793.7852186188933,1104.9673728158343
1533057198.619,335.0452484727546,1001.3237488132374,1082.0299446925694,674.1757302209055,682.1487552188031
1533057198.6220002,373.3333333333333,967.9424928794249,1077.2869275449518,603.4923349173841,473.55662079274265
1533057198.6260002,789.748113917625,956.82300284823,1020.3415638812395,739.4142325969817,752.6185248183083
1533057198.63,794.5316739309283,945.7035128170352,1001.3597759933353,853.5899628178872,614.496159991753
1533057198.6339998,516.928355126118,890.0604909806049,1063.0481568046653,815.5313860775854,566.5753311684965
1533057198.6379998,349.40573088974077,956.82300284823,987.1210052530489,690.4881395025153,744.161228802639
1533057198.6420002,344.6221708764375,1079.2057507120576,915.93687084905,641.550911657686,732.8867584145147
1533057198.6460001,689.2345393757986,1079.2057507120576,906.4411172563812,782.9065675143659,840.0028864491521
1533057198.65,789.748113917625,1123.706496677065,958.6434637724759,826.4100371821128,1042.9548992319983
1533057198.654,612.6485672775648,1079.2057507120576,1025.084581028857,717.6680651382896,1093.69290242771
1533057198.658,440.34238302788424,990.2042587820426,977.62525166038,614.3709860219116,1065.503840008247
1533057198.661,358.9728509163472,1001.3237488132374,982.3682688079975,516.5076650826159,1166.9798463996701
1533057198.665,713.1621418193912,1023.5855147158552,1001.3597759933353,560.0,814.6309984021442
1533057198.669,885.4683260690717,1090.3480265834803,906.4411172563812,701.3556558566798,504.5628575846606
1533057198.6729999,698.8016594024051,1090.3480265834803,882.7163122208594,685.04324657507,893.5580640173187
1533057198.677,521.7119151394213,1079.2057507120576,873.2205586281906,592.6248185632195,834.3627648059378
1533057198.681,411.6312205709885,1056.9667706496678,925.4229051442853,494.75036287356096,890.7408896448636
1533057198.685,679.6576169721158,1090.3480265834803,1058.3051396570477,581.7461674586921,755.4356991907633
1533057198.689,899.8288084860578,1279.470500474705,1077.2869275449518,772.0390511602012,676.5086335755889
1533057198.6929998,732.3061842496805,1268.3510104435102,1020.3415638812395,810.0976279005031,879.4664192567393
1533057198.697,555.2164399866967,1190.46900854469,982.3682688079975,804.6638697234207,1073.9611360239162
1533057198.701,392.47737576362266,1157.0877526108775,949.1574294772406,712.2343069612074,1150.0652543683316
1533057198.704,603.0814472509584,1056.9667706496678,1115.25050332076,744.847990774064,1093.69290242771
1533057198.708,837.6131211818866,1101.467516614675,1186.4443570221924,902.5271906627165,763.8929952064326
1533057198.7120001,665.2971345551297,1168.2072426420725,1044.0663689167611,935.1408744755731,608.8560383485387
1533057198.716,488.2073902921458,1212.730774447308,1001.3597759933353,929.7071162984909,1150.0652543683316
1533057198.72,306.3242836387824,1290.6127763461277,949.1574294772406,744.847990774064,924.5643008092367
1533057198.724,540.8559575697107,1301.7322663773227,949.1574294772406,712.2343069612074,761.0758208339777
1533057198.728,875.9012060424653,1179.3495185134952,977.62525166038,859.0237209949695,713.1549920107211
1533057198.732,737.0995466400602,1068.0862606808626,1048.8093860643787,875.3361302765793,707.5148703675068
1533057198.736,512.1447951128149,1157.0877526108775,1105.7644690255247,837.2775535362774,1040.1377248595434
1533057198.74,315.9012060424653,1301.7322663773227,1134.2420105060978,733.9804744198993,1107.7845471882893
1533057198.744,512.1447951128149,1268.3510104435102,1205.4261449100966,728.5467162428171,941.4788928405752
1533057198.7470002,842.3966811951898,1257.231520412315,1262.371508573809,864.4686139224146,1088.0527807844956
1533057198.7510002,775.3876315006389,1290.6127763461277,1210.1691620577142,918.8284651939633,814.6309984021442
1533057198.755,627.009049694551,1257.231520412315,1110.5074861731423,859.0237209949695,391.81238080511315
1533057198.7589998,454.7028654448704,1223.8502644785026,1086.7826811376206,744.847990774064,583.4899231998351
1533057198.7629998,574.3604824169861,1145.9682625796827,1029.8275981764746,799.2189767959755,1124.6991392196278
1533057198.7670002,933.3333333333334,1045.824494778245,1086.7826811376206,1027.5704372377866,1324.833977630019
1533057198.7710001,842.3966811951898,1045.824494778245,1214.9121792053318,1005.8242697790945,879.4664192567393
1533057198.775,631.8024120849306,1190.46900854469,1110.5074861731423,875.3361302765793,989.3939487655275
1533057198.779,435.55882301458104,1168.2072426420725,963.3864809200935,766.6052929831189,1096.510076800165
1533057198.783,454.7028654448704,1023.5855147158552,1044.0663689167611,723.1018233153719,693.4232256069275
1533057198.786,818.4690787515973,1101.467516614675,1210.1691620577142,826.4100371821128,792.0820576258956
1533057198.79,799.3152339442315,1157.0877526108775,1271.8672621664778,891.648539558189,927.3814751816917
1533057198.794,603.0814472509584,1101.467516614675,1200.6734084650452,864.4686139224146,786.4419359826813
1533057198.7979999,425.98190061089815,1068.0862606808626,1091.5256982852381,777.4728093372835,645.502396783671
1533057198.802,387.69381575031946,1123.706496677065,1044.0663689167611,717.6680651382896,676.5086335755889
1533057198.806,713.1621418193912,1168.2072426420725,1034.580334621526,733.9804744198993,532.7519200041235
1533057198.81,761.0271490836528,1112.5870066458701,925.4229051442853,810.0976279005031,634.2279263955467
1533057198.814,555.2164399866967,1012.4660246846603,835.2569828523824,853.5899628178872,1000.6741920519561
1533057198.8179998,363.76621330672685,1012.4660246846603,858.9817878879041,744.847990774064,887.9179423741044
1533057198.822,320.68476605576853,1012.4660246846603,840.0,636.1171534806036,997.8512447811969
1533057198.826,698.8016594024051,1034.70500474705,797.2934070765742,712.2343069612074,1088.0527807844956
1533057198.829,784.9645539043217,1056.9667706496678,716.6135190799065,766.6052929831189,758.2528735632184
1533057198.833,603.0814472509584,979.0847687508477,654.9154189711429,723.1018233153719,594.7643935879594
1533057198.8370001,488.2073902921458,878.94100094941,654.9154189711429,646.9846698347683,653.9596927993402
1533057198.841,430.77526300127784,934.5840227858403,811.522458519427,592.6248185632195,721.6122880263904
1533057198.845,746.6666666666666,912.3222568832226,1034.580334621526,690.4881395025153,715.9721663831762
1533057198.849,899.8288084860578,667.5567611555676,1010.8458102885705,820.9651442546676,820.2711200453585
1533057198.853,679.6576169721158,611.9137393191374,915.93687084905,886.2147813811067,949.9361888562445
1533057198.857,497.78431269582876,756.5582530855826,821.0182121120959,853.5899628178872,1071.1439616514613
1533057198.861,373.3333333333333,901.2027668520277,778.3018998912364,723.1018233153719,1017.5830111849905
1533057198.865,622.2254896812477,1023.5855147158552,825.7612292597136,717.6680651382896,873.8262976135251
1533057198.869,813.6757163612176,1023.5855147158552,778.3018998912364,864.4686139224146,786.4419359826813
1533057198.8720002,631.8024120849306,1023.5855147158552,711.8607826348552,880.7698884536616,653.9596927993402
1533057198.8760002,406.8378581806088,1068.0862606808626,640.6766482308565,761.1604000556738,1045.7720736044535
1533057198.88,143.59502179278476,990.2042587820426,507.7944137180941,603.4923349173841,803.3565280140199
1533057198.8839998,349.40573088974077,990.2042587820426,531.5289380510494,625.2385023760762,848.4544095665171
1533057198.8879998,646.1530921248403,1034.70500474705,578.9882674195266,793.7852186188933,1178.2543167877946
1533057198.8920002,473.84690787515973,979.0847687508477,522.0331844583806,782.9065675143659,1093.69290242771
1533057198.8960001,282.39668119518984,867.8215109182152,446.10603290676414,652.4295627622134,755.4356991907633
1533057198.9,67.0090496945509,934.5840227858403,427.12424501886005,581.7461674586921,631.4107520230916
1533057198.904,239.31523394423147,967.9424928794249,559.9967602341887,695.9218976795976,831.5455904334829
1533057198.908,555.2164399866967,956.82300284823,612.2088260477171,755.7266418785914,1054.2293696201227
1533057198.911,464.27978784855327,1056.9667706496678,569.4925138268577,712.2343069612074,837.1799391783928
1533057198.915,330.2616884594514,1157.0877526108775,597.9700553074306,717.6680651382896,868.1861759703108
1533057198.919,167.5226242363773,1223.8502644785026,512.5471501631454,603.4923349173841,1076.7783103963714
1533057198.9229999,378.126695723713,1223.8502644785026,583.7312845671441,581.7461674586921,738.5211071594248
1533057198.927,732.3061842496805,1190.46900854469,745.0813412630458,782.9065675143659,831.5455904334829
1533057198.931,627.009049694551,1145.9682625796827,707.1177654872376,853.5899628178872,1059.8694912633368
1533057198.935,454.7028654448704,1112.5870066458701,688.1359775993335,804.6638697234207,1155.7053760115457
1533057198.939,287.18024120849304,1112.5870066458701,578.9882674195266,701.3556558566798,1073.9611360239162
1533057198.9429998,430.77526300127784,1223.8502644785026,578.9882674195266,706.7894140337621,949.9361888562445
1533057198.947,823.2526387649004,1357.352502373525,640.6766482308565,924.2733581214086,786.4419359826813
1533057198.951,770.6040714873357,1357.352502373525,578.9882674195266,935.1408744755731,515.8373279727849
1533057198.954,536.0723975564074,1401.8532483385325,559.9967602341887,799.2189767959755,775.167465594557
1533057198.958,272.81975879150696,1501.9970161399701,531.5289380510494,706.7894140337621,1150.0652543683316
1533057198.9620001,301.5407236254792,1468.6157602061576,616.9518431953347,646.9846698347683,868.1861759703108
1533057198.966,684.4509793624954,1435.2345042723452,773.5588827436188,733.9804744198993,738.5211071594248
1533057198.97,627.009049694551,1357.352502373525,726.0995533751418,772.0390511602012,823.0882944178135
1533057198.974,416.4147805842917,1279.470500474705,640.6766482308565,728.5467162428171,783.6247616102263
1533057198.978,215.38763150063892,1234.9697545096976,578.9882674195266,587.1799256357743,1189.5287871759188
1533057198.982,119.65761697211573,1134.8487725484877,588.4743017147617,386.0195255801006,1065.503840008247
1533057198.986,454.7028654448704,1090.3480265834803,745.0813412630458,386.0195255801006,840.0028864491521
1533057198.99,536.0723975564074,1123.706496677065,811.522458519427,527.3751814367805,794.8992319983506
1533057198.994,330.2616884594514,1101.467516614675,631.1906139356212,489.31660469647863,806.1737023864749
1533057198.9970002,201.02714908365277,1056.9667706496678,384.4079327980006,386.0195255801006,873.8262976135251
1533057199.0010002,186.66666666666666,1068.0862606808626,384.4079327980006,375.1408744755731,653.9596927993402
1533057199.005,564.7933623903797,979.0847687508477,612.2088260477171,451.2580279561768,761.0758208339777
1533057199.0089998,655.7300145285232,878.94100094941,697.6317311920025,603.4923349173841,1054.2293696201227
1533057199.0129998,445.1357454182639,945.7035128170352,531.5289380510494,657.8633209392957,1073.9611360239162
1533057199.0170002,358.9728509163472,1034.70500474705,412.88547427857355,636.1171534806036,910.4726560486573
1533057199.0210001,291.9736035988727,1023.5855147158552,408.1327378335223,581.7461674586921,961.2106592443688
1533057199.025,531.2888375431043,901.2027668520277,455.5920672019994,630.6833953035214,1059.8694912633368
1533057199.029,684.4509793624954,878.94100094941,479.3265915349548,793.7852186188933,631.4107520230916
1533057199.033,583.937404820669,878.94100094941,493.5653622752412,848.1562046408048,603.2216896036286
1533057199.036,507.35143272243516,890.0604909806049,446.10603290676414,837.2775535362774,1076.7783103963714
1533057199.04,382.9102557370162,878.94100094941,384.4079327980006,761.1604000556738,1068.321014380702
1533057199.044,588.7209648339723,845.5597450155974,626.4378774905699,750.2928837015091,707.5148703675068
1533057199.0479999,842.3966811951898,956.82300284823,873.2205586281906,891.648539558189,786.4419359826813
1533057199.052,746.6666666666666,1090.3480265834803,892.2023465160947,978.6443441433202,1045.7720736044535
1533057199.056,536.0723975564074,1134.8487725484877,821.0182121120959,875.3361302765793,1093.69290242771
1533057199.06,325.4781284461482,1145.9682625796827,816.2751949644783,646.9846698347683,842.8200608216072
1533057199.064,536.0723975564074,1168.2072426420725,1025.084581028857,619.804744198994,986.5767743930725
1533057199.0679998,761.0271490836528,1112.5870066458701,1148.4710619489506,772.0390511602012,1116.2418432039585
1533057199.072,617.4419296679445,1012.4660246846603,1153.2237983940017,750.2928837015091,1135.9736096077522
1533057199.076,483.4238302788426,1023.5855147158552,1091.5256982852381,652.4295627622134,1200.8090304623472
1533057199.079,253.67571636121758,934.5840227858403,996.6070395482841,505.6290139780884,1040.1377248595434
1533057199.083,315.9012060424653,801.05899905059,1039.3233517691435,445.8242697790945,882.2835936291943
1533057199.0870001,650.9464545152199,867.8215109182152,1072.5439103973342,657.8633209392957,865.3690015978558
1533057199.091,622.2254896812477,990.2042587820426,944.4046930321894,782.9065675143659,845.6372351940622
1533057199.095,459.4864254581736,1023.5855147158552,987.1210052530489,733.9804744198993,828.7226431627236
1533057199.099,311.1176460291621,1001.3237488132374,972.8822345127624,565.4337581770823,969.6621823617339
1533057199.103,397.27073815400234,901.2027668520277,1010.8458102885705,467.57043723778656,704.6976959950518
1533057199.107,689.2345393757986,834.4402549844026,1082.0299446925694,608.9260930944664,507.3800319571156
1533057199.111,646.1530921248403,778.8200189882002,911.1841344039988,761.1604000556738,921.7471264367816
1533057199.115,449.9193054315672,689.7957412179574,953.9004466248582,712.2343069612074,1141.6137312509663
1533057199.1179998,263.2526387649005,700.9380170893802,1063.0481568046653,538.2538325413079,899.1924127622287
1533057199.1220002,358.9728509163472,834.4402549844026,1172.2055862819059,538.2538325413079,690.6060512344725
1533057199.1260002,732.3061842496805,990.2042587820426,1238.646703538287,706.7894140337621,899.1924127622287
1533057199.13,708.3785818060879,990.2042587820426,1044.0663689167611,723.1018233153719,1093.69290242771
1533057199.1339998,483.4238302788426,967.9424928794249,825.7612292597136,625.2385023760762,907.649708777898
1533057199.1379998,272.81975879150696,878.94100094941,692.8789947469511,489.31660469647863,828.7226431627236
1533057199.1420002,296.75716361217593,778.8200189882002,835.2569828523824,429.51186049748475,949.9361888562445
1533057199.1460001,622.2254896812477,856.7020208870202,963.3864809200935,500.1952558010061,1037.3147775887842
1533057199.15,603.0814472509584,834.4402549844026,863.7248050355217,576.3124092816098,1085.2356064120406
1533057199.154,449.9193054315672,834.4402549844026,792.540670631523,587.1799256357743,1119.0590175764137
1533057199.158,406.8378581806088,801.05899905059,683.3929604517159,478.44908834231404,634.2279263955467
1533057199.161,440.34238302788424,712.0575071205751,631.1906139356212,369.70711629849086,724.4294623988454
1533057199.165,746.6666666666666,734.3192730231927,621.6948603429523,511.0627721551707,1144.4309056234215
1533057199.169,828.0361987782037,801.05899905059,583.7312845671441,592.6248185632195,1020.4059584557497
1533057199.1729999,650.9464545152199,734.3192730231927,555.2537430865711,543.6875907183902,966.8450079892789
1533057199.177,449.9193054315672,723.17699715177,479.3265915349548,516.5076650826159,786.4419359826813
1533057199.181,335.0452484727546,834.4402549844026,526.7859209034318,380.58576740301834,834.3627648059378
1533057199.185,665.2971345551297,990.2042587820426,735.5953069678106,391.45328375718293,899.1924127622287
1533057199.189,818.4690787515973,1023.5855147158552,749.8340777080971,549.1213488954726,625.7706303798773
1533057199.1929998,641.3695321115371,945.7035128170352,664.4111725638118,603.4923349173841,913.2898304211124
1533057199.197,440.34238302788424,979.0847687508477,626.4378774905699,598.0585767403019,1293.8277408381011
1533057199.201,263.2526387649005,1079.2057507120576,669.1541897114295,511.0627721551707,935.838771197361
1533057199.204,560.0,1145.9682625796827,764.0728484483836,554.5662418229177,749.8013504458534
1533057199.208,832.819758791507,1168.2072426420725,716.6135190799065,744.847990774064,989.3939487655275
1533057199.2120001,679.6576169721158,1190.46900854469,702.37474833962,744.847990774064,873.8262976135251
1533057199.216,464.27978784855327,1201.588498575885,787.7976534839053,674.1757302209055,820.2711200453585
1533057199.22,363.76621330672685,1301.7322663773227,678.6402240066647,570.8675163541646,862.5518272254008
1533057199.224,674.8740569588125,1390.7337583073377,754.5770948557147,592.6248185632195,699.0633472501418
1533057199.228,904.6221708764375,1335.1135223111353,925.4229051442853,766.6052929831189,662.4169888150095
1533057199.232,746.6666666666666,1301.7322663773227,882.7163122208594,782.9065675143659,642.6852224112159
1533057199.236,593.5045248472754,1357.352502373525,915.93687084905,728.5467162428171,721.6122880263904
1533057199.24,502.56787270913196,1435.2345042723452,977.62525166038,652.4295627622134,591.9472192155043
1533057199.2429998,732.3061842496805,1490.8775261087753,996.6070395482841,663.297079116378,995.0340704087419
1533057199.2470002,966.8378581806088,1535.3782720737827,968.1392173651448,777.4728093372835,834.3627648059378
1533057199.2510002,756.2435890703496,1435.2345042723452,920.6798879966676,723.1018233153719,374.89778877377455
1533057199.255,555.2164399866967,1301.7322663773227,858.9817878879041,543.6875907183902,456.64202876140405
1533057199.2589998,373.3333333333333,1234.9697545096976,783.0546363362877,478.44908834231404,321.34261120560797
1533057199.2629998,497.78431269582876,1234.9697545096976,768.8158655960012,521.9414232596981,312.88531518993864
1533057199.2670002,828.0361987782037,1168.2072426420725,754.5770948557147,625.2385023760762,591.9472192155043
1533057199.2710001,746.6666666666666,1134.8487725484877,683.3929604517159,663.297079116378,904.832534405443
1533057199.275,555.2164399866967,1157.0877526108775,721.3565362275241,657.8633209392957,966.8450079892789
1533057199.279,402.05429816730555,1101.467516614675,650.1724018235253,598.0585767403019,1057.0465439925777
1533057199.283,550.4328799733936,1068.0862606808626,612.2088260477171,565.4337581770823,918.9241791660223
1533057199.286,875.9012060424653,1012.4660246846603,764.0728484483836,641.550911657686,989.3939487655275
1533057199.29,866.3242836387824,1112.5870066458701,797.2934070765742,706.7894140337621,1138.7907839802072
1533057199.294,689.2345393757986,1234.9697545096976,811.522458519427,701.3556558566798,1183.8944384310087
1533057199.2979999,483.4238302788426,1134.8487725484877,830.5139657047648,598.0585767403019,1423.492809648987
1533057199.302,560.0,1112.5870066458701,792.540670631523,527.3751814367805,1257.181382402969
1533057199.306,909.4057308897408,1023.5855147158552,764.0728484483836,592.6248185632195,949.9361888562445
1533057199.31,823.2526387649004,867.8215109182152,697.6317311920025,690.4881395025153,890.7408896448636
1533057199.314,521.7119151394213,778.8200189882002,688.1359775993335,614.3709860219116,1144.4309056234215
1533057199.3179998,325.4781284461482,700.9380170893802,602.7130724550483,467.57043723778656,1358.657388794392
1533057199.322,397.27073815400234,867.8215109182152,588.4743017147617,440.3905116020122,1045.7720736044535
1533057199.326,756.2435890703496,1101.467516614675,735.5953069678106,565.4337581770823,845.6372351940622
1533057199.329,770.6040714873357,1090.3480265834803,692.8789947469511,646.9846698347683,983.7596000206175
1533057199.333,550.4328799733936,1068.0862606808626,640.6766482308565,587.1799256357743,935.838771197361
1533057199.3370001,358.9728509163472,1056.9667706496678,673.8972068590471,473.0041954148689,1197.986083191588
1533057199.341,330.2616884594514,1079.2057507120576,849.4957535926688,413.19945121587494,1169.797020772125
1533057199.345,665.2971345551297,1157.0877526108775,939.6616758845718,538.2538325413079,947.1132415854853
1533057199.349,737.0995466400602,1157.0877526108775,816.2751949644783,614.3709860219116,608.8560383485387
1533057199.353,555.2164399866967,1101.467516614675,949.1574294772406,614.3709860219116,806.1737023864749
1533057199.357,382.9102557370162,1056.9667706496678,920.6798879966676,554.5662418229177,1040.1377248595434
1533057199.361,325.4781284461482,1090.3480265834803,707.1177654872376,451.2580279561768,777.984639967012
1533057199.365,698.8016594024051,1068.0862606808626,792.540670631523,565.4337581770823,997.8512447811969
1533057199.3679998,823.2526387649004,923.4417469144174,896.9453636637123,723.1018233153719,848.4544095665171
1533057199.3720002,598.2978872376551,967.9424928794249,849.4957535926688,674.1757302209055,701.8805216225968
1533057199.3760002,473.84690787515973,1045.824494778245,673.8972068590471,538.2538325413079,775.167465594557
1533057199.38,421.1983405975949,1056.9667706496678,711.8607826348552,500.1952558010061,896.3752383897737
1533057199.3839998,650.9464545152199,1034.70500474705,987.1210052530489,527.3751814367805,995.0340704087419
1533057199.3879998,741.8831066533635,967.9424928794249,996.6070395482841,570.8675163541646,1141.6137312509663
1533057199.3920002,512.1447951128149,1001.3237488132374,858.9817878879041,570.8675163541646,997.8512447811969
1533057199.3960001,354.18929090304397,934.5840227858403,811.522458519427,451.2580279561768,808.99087675893
1533057199.4,258.46907875159724,890.0604909806049,773.5588827436188,347.9609488397988,718.7893407556312
1533057199.404,526.4954751527246,934.5840227858403,783.0546363362877,440.3905116020122,758.2528735632184
1533057199.408,775.3876315006389,934.5840227858403,830.5139657047648,592.6248185632195,913.2898304211124
1533057199.411,646.1530921248403,1068.0862606808626,745.0813412630458,641.550911657686,955.5705376011546
1533057199.415,492.9909503054491,1212.730774447308,702.37474833962,587.1799256357743,944.2960672130303
1533057199.419,344.6221708764375,1145.9682625796827,702.37474833962,478.44908834231404,862.5518272254008
1533057199.4229999,521.7119151394213,1079.2057507120576,740.3383241154282,532.8089396138628,718.7893407556312
1533057199.427,761.0271490836528,1134.8487725484877,735.5953069678106,652.4295627622134,727.2466367713005
1533057199.431,631.8024120849306,1112.5870066458701,707.1177654872376,674.1757302209055,546.8435647647028
1533057199.435,449.9193054315672,1056.9667706496678,745.0813412630458,630.6833953035214,569.3982784392557
1533057199.439,287.18024120849304,1145.9682625796827,683.3929604517159,570.8675163541646,789.2591103551364
1533057199.4429998,445.1357454182639,1301.7322663773227,626.4378774905699,576.3124092816098,910.4726560486573
1533057199.447,823.2526387649004,1301.7322663773227,593.2173188623793,712.2343069612074,885.1007680016494
1533057199.451,765.810709096956,1157.0877526108775,436.6102793140953,690.4881395025153,673.6914592031338
1533057199.454,574.3604824169861,1134.8487725484877,393.90368639066946,614.3709860219116,885.1007680016494
1533057199.458,378.126695723713,1168.2072426420725,403.3897206859047,576.3124092816098,1088.0527807844956
1533057199.4620001,402.05429816730555,1112.5870066458701,465.0878207946683,527.3751814367805,780.8075872377713
1533057199.466,737.0995466400602,1112.5870066458701,597.9700553074306,701.3556558566798,766.7101695788876
1533057199.47,727.5226242363773,1145.9682625796827,602.7130724550483,744.847990774064,1093.69290242771
1533057199.474,512.1447951128149,1179.3495185134952,474.5738550899035,603.4923349173841,972.4851296324932
1533057199.478,282.39668119518984,1157.0877526108775,280.0032397658112,440.3905116020122,840.0028864491521
1533057199.482,311.1176460291621,1034.70500474705,327.4625691342883,375.1408744755731,893.5580640173187
1533057199.486,698.8016594024051,1079.2057507120576,583.7312845671441,538.2538325413079,639.8680480387609
1533057199.49,708.3785818060879,1168.2072426420725,707.1177654872376,663.297079116378,577.8498015566208
1533057199.4929998,516.928355126118,1223.8502644785026,749.8340777080971,598.0585767403019,738.5211071594248
1533057199.4970002,378.126695723713,1268.3510104435102,740.3383241154282,494.75036287356096,682.1487552188031
1533057199.5010002,373.3333333333333,1312.8517564085175,778.3018998912364,445.8242697790945,1051.4121952476676
1533057199.505,698.8016594024051,1368.4947782449478,873.2205586281906,549.1213488954726,1000.6741920519561
1533057199.5089998,780.1711915139422,1257.231520412315,792.540670631523,674.1757302209055,808.99087675893
1533057199.5129998,622.2254896812477,1257.231520412315,778.3018998912364,668.7419720438232,845.6372351940622
1533057199.5170002,507.35143272243516,1412.9955242099552,692.8789947469511,630.6833953035214,876.6434719859801
1533057199.5210001,488.2073902921458,1546.4977621049777,631.1906139356212,630.6833953035214,854.0945312097315
1533057199.525,717.9555042097709,1524.2587820425879,759.3201120033324,641.550911657686,614.496159991753
1533057199.529,842.3966811951898,1513.1165061711652,783.0546363362877,793.7852186188933,913.2898304211124
1533057199.533,756.2435890703496,1613.2602739726028,659.6584361187605,918.8284651939633,935.838771197361
1533057199.536,607.8650072642616,1602.11799810118,484.0696086825724,842.7113117133597,727.2466367713005
1533057199.54,526.4954751527246,1490.8775261087753,431.8672621664777,663.297079116378,693.4232256069275
1533057199.544,799.3152339442315,1357.352502373525,635.9336310832389,646.9846698347683,676.5086335755889
1533057199.5479999,928.5497733200301,1223.8502644785026,749.8340777080971,788.351460441811,758.2528735632184
1533057199.552,708.3785818060879,1034.70500474705,840.0,761.1604000556738,749.8013504458534
1533057199.556,492.9909503054491,979.0847687508477,901.6981001087636,646.9846698347683,823.0882944178135
1533057199.56,282.39668119518984,1001.3237488132374,840.0,532.8089396138628,1009.1257151693212
1533057199.564,483.4238302788426,945.7035128170352,835.2569828523824,543.6875907183902,935.838771197361
1533057199.5679998,717.9555042097709,856.7020208870202,854.2387707402864,706.7894140337621,885.1007680016494
1533057199.572,540.8559575697107,878.94100094941,844.7430171476176,723.1018233153719,989.3939487655275
1533057199.575,378.126695723713,890.0604909806049,821.0182121120959,592.6248185632195,1037.3147775887842
1533057199.579,263.2526387649005,923.4417469144174,797.2934070765742,494.75036287356096,823.0882944178135
1533057199.583,550.4328799733936,1012.4660246846603,797.2934070765742,538.2538325413079,690.6060512344725
1533057199.5870001,851.9638012217963,1056.9667706496678,735.5953069678106,685.04324657507,653.9596927993402
1533057199.591,717.9555042097709,1112.5870066458701,683.3929604517159,750.2928837015091,544.0263903922478
1533057199.595,607.8650072642616,1123.706496677065,707.1177654872376,750.2928837015091,803.3565280140199
1533057199.599,435.55882301458104,1023.5855147158552,621.6948603429523,619.804744198994,1000.6741920519561
1533057199.603,569.5769224036829,912.3222568832226,688.1359775993335,608.9260930944664,958.3877119736096
1533057199.607,909.4057308897408,845.5597450155974,735.5953069678106,837.2775535362774,817.4481727745992
1533057199.611,813.6757163612176,923.4417469144174,740.3383241154282,886.2147813811067,721.6122880263904
1533057199.615,593.5045248472754,967.9424928794249,797.2934070765742,761.1604000556738,783.6247616102263
1533057199.6179998,402.05429816730555,878.94100094941,792.540670631523,598.0585767403019,783.6247616102263
1533057199.6220002,583.937404820669,812.2012749220128,915.93687084905,543.6875907183902,715.9721663831762
1533057199.6260002,938.126695723713,745.4387630543878,1010.8458102885705,695.9218976795976,710.3378176382661
1533057199.63,856.757163612176,700.9380170893802,873.2205586281906,788.351460441811,749.8013504458534
1533057199.6339998,674.8740569588125,634.1755052217551,854.2387707402864,717.6680651382896,890.7408896448636
1533057199.6379998,435.55882301458104,545.1740132917402,849.4957535926688,614.3709860219116,1023.2231328282047
1533057199.6420002,488.2073902921458,611.9137393191374,854.2387707402864,570.8675163541646,1150.0652543683316
1533057199.6460001,847.180241208493,745.4387630543878,925.4229051442853,690.4881395025153,1186.7116128034638
1533057199.65,775.3876315006389,723.17699715177,939.6616758845718,777.4728093372835,1333.2912736456883
1533057199.654,583.937404820669,845.5597450155974,906.4411172563812,679.6094883979878,980.9424256481625
1533057199.658,492.9909503054491,923.4417469144174,735.5953069678106,560.0,890.7408896448636
1533057199.661,545.6395175830139,878.94100094941,749.8340777080971,549.1213488954726,823.0882944178135
1533057199.665,847.180241208493,778.8200189882002,858.9817878879041,641.550911657686,792.0820576258956
1533057199.669,823.2526387649004,756.5582530855826,726.0995533751418,739.4142325969817,780.8075872377713
1533057199.6729999,622.2254896812477,812.2012749220128,650.1724018235253,739.4142325969817,617.313334364208
1533057199.677,445.1357454182639,745.4387630543878,683.3929604517159,598.0585767403019,800.5393536415648
1533057199.681,382.9102557370162,756.5582530855826,754.5770948557147,413.19945121587494,862.5518272254008
1533057199.685,703.5950217927848,801.05899905059,953.9004466248582,483.8828465193963,969.6621823617339
1533057199.689,832.819758791507,834.4402549844026,972.8822345127624,712.2343069612074,1045.7720736044535
1533057199.6929998,627.009049694551,867.8215109182152,868.477541480573,750.2928837015091,786.4419359826813
1533057199.697,469.0633478618565,856.7020208870202,858.9817878879041,679.6094883979878,789.2591103551364
1533057199.7,459.4864254581736,890.0604909806049,877.9635757758082,603.4923349173841,1040.1377248595434
1533057199.704,756.2435890703496,801.05899905059,906.4411172563812,641.550911657686,1088.0527807844956
1533057199.708,880.6847660557685,789.9395090193951,949.1574294772406,723.1018233153719,817.4481727745992
1533057199.7120001,679.6576169721158,767.6777431167774,1086.7826811376206,679.6094883979878,868.1861759703108
1533057199.716,497.78431269582876,723.17699715177,1124.7462569134289,641.550911657686,882.2835936291943
1533057199.72,421.1983405975949,789.9395090193951,1063.0481568046653,603.4923349173841,769.533116849647
1533057199.724,698.8016594024051,845.5597450155974,1134.2420105060978,646.9846698347683,693.4232256069275
1533057199.728,861.5407236254791,912.3222568832226,1157.9668155416193,755.7266418785914,659.5998144425545
1533057199.732,727.5226242363773,945.7035128170352,1138.9850276537154,810.0976279005031,1023.2231328282047
1533057199.736,588.7209648339723,890.0604909806049,1110.5074861731423,766.6052929831189,735.7039327869697
1533057199.74,445.1357454182639,845.5597450155974,1048.8093860643787,587.1799256357743,544.0263903922478
1533057199.7429998,631.8024120849306,789.9395090193951,1039.3233517691435,614.3709860219116,1045.7720736044535
1533057199.7470002,828.0361987782037,789.9395090193951,991.8640224006665,815.5313860775854,842.8200608216072
1533057199.7510002,694.0180993891018,678.6762511867626,996.6070395482841,869.9023720994969,608.8560383485387
1533057199.755,488.2073902921458,589.6747592567476,1072.5439103973342,799.2189767959755,840.0028864491521
1533057199.7589998,306.3242836387824,700.9380170893802,1025.084581028857,668.7419720438232,668.0513375599196
1533057199.7629998,488.2073902921458,623.0560151905602,1039.3233517691435,679.6094883979878,876.6434719859801
1533057199.7670002,775.3876315006389,556.2935033229351,1015.5888274361882,875.3361302765793,1192.351734446678
1533057199.7710001,612.6485672775648,611.9137393191374,953.9004466248582,984.0781023204024,1073.9611360239162
1533057199.775,382.9102557370162,556.2935033229351,1006.1027931409529,946.0195255801007,989.3939487655275
1533057199.779,272.81975879150696,611.9137393191374,873.2205586281906,869.9023720994969,1000.6741920519561
1533057199.783,459.4864254581736,700.9380170893802,783.0546363362877,853.5899628178872,927.3814751816917
1533057199.786,741.8831066533635,656.4372711243727,806.7794413718094,918.8284651939633,902.015360032988
1533057199.79,622.2254896812477,611.9137393191374,697.6317311920025,973.199451215875,1152.8882016390908
1533057199.794,430.77526300127784,645.29499525295,621.6948603429523,967.7656930387926,1037.3147775887842
1533057199.7979999,244.10859633461115,700.9380170893802,659.6584361187605,880.7698884536616,642.6852224112159
1533057199.802,368.5497733200301,801.05899905059,740.3383241154282,831.8437953591952,775.167465594557
1533057199.806,703.5950217927848,856.7020208870202,740.3383241154282,918.8284651939633,513.0201536003299
1533057199.81,641.3695321115371,979.0847687508477,688.1359775993335,994.9456186745671,366.4404927581052
1533057199.814,378.126695723713,1023.5855147158552,688.1359775993335,891.648539558189,902.015360032988
1533057199.8179998,162.7390642230741,967.9424928794249,673.8972068590471,733.9804744198993,721.6122880263904
1533057199.822,306.3242836387824,1012.4660246846603,678.6402240066647,679.6094883979878,665.2341631874646
1533057199.825,689.2345393757986,990.2042587820426,759.3201120033324,837.2775535362774,1065.503840008247
1533057199.829,660.5135745418264,923.4417469144174,659.6584361187605,913.3947070168811,873.8262976135251
1533057199.833,449.9193054315672,823.3207649532077,640.6766482308565,880.7698884536616,513.0201536003299
1533057199.8370001,282.39668119518984,789.9395090193951,683.3929604517159,864.4686139224146,718.7893407556312
1533057199.841,311.1176460291621,801.05899905059,683.3929604517159,761.1604000556738,1158.5225503840009
1533057199.845,627.009049694551,923.4417469144174,697.6317311920025,761.1604000556738,1099.32725117262
1533057199.849,607.8650072642616,1045.824494778245,588.4743017147617,869.9023720994969,947.1132415854853
1533057199.853,397.27073815400234,1123.706496677065,465.0878207946683,853.5899628178872,538.3862687490335
1533057199.857,205.82051147403246,1234.9697545096976,417.6284914261912,717.6680651382896,544.0263903922478
1533057199.861,205.82051147403246,1190.46900854469,441.3532964617129,723.1018233153719,1138.7907839802072
1533057199.865,564.7933623903797,1056.9667706496678,564.74949667924,897.0822977352713,904.832534405443
1533057199.8679998,641.3695321115371,1101.467516614675,635.9336310832389,973.199451215875,817.4481727745992
1533057199.8720002,469.0633478618565,1290.6127763461277,678.6402240066647,897.0822977352713,969.6621823617339
1533057199.8760002,315.9012060424653,1357.352502373525,802.0364242241918,815.5313860775854,871.00912324107
1533057199.88,320.68476605576853,1379.6142682761426,844.7430171476176,810.0976279005031,1000.6741920519561
1533057199.8839998,684.4509793624954,1401.8532483385325,958.6434637724759,859.0237209949695,924.5643008092367
1533057199.8879998,794.5316739309283,1379.6142682761426,963.3864809200935,935.1408744755731,763.8929952064326
1533057199.8920002,564.7933623903797,1290.6127763461277,877.9635757758082,946.0195255801007,1302.2850368537704
1533057199.8960001,325.4781284461482,1179.3495185134952,882.7163122208594,788.351460441811,1186.7116128034638
1533057199.9,215.38763150063892,1179.3495185134952,811.522458519427,652.4295627622134,775.167465594557
1533057199.904,550.4328799733936,1179.3495185134952,806.7794413718094,755.7266418785914,834.3627648059378
1533057199.907,756.2435890703496,1190.46900854469,892.2023465160947,859.0237209949695,606.0388639760837
1533057199.911,521.7119151394213,1201.588498575885,901.6981001087636,826.4100371821128,710.3378176382661
1533057199.915,330.2616884594514,1234.9697545096976,887.459329368477,712.2343069612074,834.3627648059378
1533057199.919,263.2526387649005,1301.7322663773227,773.5588827436188,608.9260930944664,755.4356991907633
1533057199.9229999,583.937404820669,1357.352502373525,783.0546363362877,663.297079116378,470.7394464202876
1533057199.927,837.6131211818866,1279.470500474705,882.7163122208594,842.7113117133597,352.3488479975258
1533057199.931,665.2971345551297,1068.0862606808626,840.0,918.8284651939633,535.5690943765785
1533057199.935,497.78431269582876,1034.70500474705,849.4957535926688,875.3361302765793,476.3737951651977
1533057199.939,354.18929090304397,1190.46900854469,787.7976534839053,766.6052929831189,625.7706303798773
1533057199.9429998,579.1440424302893,1301.7322663773227,764.0728484483836,733.9804744198993,792.0820576258956
1533057199.947,808.8921563479144,1268.3510104435102,811.522458519427,831.8437953591952,696.2403999793825
1533057199.95,660.5135745418264,1268.3510104435102,873.2205586281906,853.5899628178872,653.9596927993402
1533057199.954,492.9909503054491,1246.0892445408924,925.4229051442853,766.6052929831189,608.8560383485387
1533057199.958,358.9728509163472,1279.470500474705,877.9635757758082,657.8633209392957,583.4899231998351
1533057199.9620001,564.7933623903797,1368.4947782449478,977.62525166038,674.1757302209055,608.8560383485387
1533057199.966,880.6847660557685,1357.352502373525,1077.2869275449518,804.6638697234207,622.9534560074223
1533057199.97,727.5226242363773,1257.231520412315,1020.3415638812395,864.4686139224146,916.1070047935674
1533057199.974,492.9909503054491,1101.467516614675,1096.2687154328557,804.6638697234207,1119.0590175764137
1533057199.978,301.5407236254792,1112.5870066458701,1096.2687154328557,625.2385023760762,1011.9486624400804
1533057199.982,464.27978784855327,1090.3480265834803,1148.4710619489506,581.7461674586921,1262.8215040461832
1533057199.986,842.3966811951898,956.82300284823,1238.646703538287,761.1604000556738,1493.9625792484924
1533057199.99,789.748113917625,923.4417469144174,1233.893967093236,859.0237209949695,1206.4433792072573
1533057199.9929998,579.1440424302893,890.0604909806049,1138.9850276537154,831.8437953591952,721.6122880263904
1533057199.9970002,339.8288084860579,867.8215109182152,939.6616758845718,744.847990774064,1096.510076800165
1533057200.0010002,421.1983405975949,923.4417469144174,958.6434637724759,685.04324657507,1155.7053760115457
1533057200.005,808.8921563479144,934.5840227858403,1029.8275981764746,777.4728093372835,639.8680480387609
1533057200.0089998,799.3152339442315,823.3207649532077,1020.3415638812395,875.3361302765793,693.4232256069275
1533057200.0129998,622.2254896812477,901.2027668520277,1134.2420105060978,886.2147813811067,1085.2356064120406
1533057200.0170002,469.0633478618565,1023.5855147158552,1105.7644690255247,766.6052929831189,1296.644915210556
1533057200.0210001,526.4954751527246,979.0847687508477,1015.5888274361882,641.550911657686,1037.3147775887842
1533057200.025,880.6847660557685,979.0847687508477,1120.0032397658113,728.5467162428171,989.3939487655275
1533057200.029,866.3242836387824,956.82300284823,1157.9668155416193,837.2775535362774,1183.8944384310087
1533057200.032,641.3695321115371,901.2027668520277,1001.3597759933353,815.5313860775854,1119.0590175764137
1533057200.036,440.34238302788424,856.7020208870202,773.5588827436188,679.6094883979878,713.1549920107211
1533057200.04,358.9728509163472,767.6777431167774,778.3018998912364,565.4337581770823,873.8262976135251
1533057200.044,670.0904969455092,767.6777431167774,906.4411172563812,663.297079116378,1200.8090304623472
1533057200.0479999,746.6666666666666,801.05899905059,896.9453636637123,782.9065675143659,927.3814751816917
1533057200.052,550.4328799733936,734.3192730231927,844.7430171476176,864.4686139224146,862.5518272254008
1533057200.056,387.69381575031946,756.5582530855826,854.2387707402864,761.1604000556738,1113.4246688315036
1533057200.06,335.0452484727546,990.2042587820426,873.2205586281906,592.6248185632195,975.3023040049482
1533057200.064,627.009049694551,1101.467516614675,911.1841344039988,701.3556558566798,859.7346528529457
1533057200.0679998,722.7390642230741,1090.3480265834803,840.0,810.0976279005031,980.9424256481625
1533057200.072,521.7119151394213,990.2042587820426,749.8340777080971,772.0390511602012,792.0820576258956
1533057200.075,392.47737576362266,967.9424928794249,711.8607826348552,657.8633209392957,825.9054687902685
1533057200.079,263.2526387649005,1034.70500474705,635.9336310832389,560.0,966.8450079892789
1533057200.083,536.0723975564074,990.2042587820426,683.3929604517159,701.3556558566798,800.5393536415648
1533057200.0870001,770.6040714873357,956.82300284823,764.0728484483836,864.4686139224146,670.8742848306788
1533057200.091,593.5045248472754,901.2027668520277,749.8340777080971,826.4100371821128,766.7101695788876
1533057200.095,473.84690787515973,967.9424928794249,821.0182121120959,761.1604000556738,583.4899231998351
1533057200.099,382.9102557370162,1090.3480265834803,911.1841344039988,646.9846698347683,662.4169888150095
1533057200.103,689.2345393757986,1090.3480265834803,915.93687084905,706.7894140337621,935.838771197361
1533057200.107,923.7662133067269,1068.0862606808626,835.2569828523824,864.4686139224146,1009.1257151693212
1533057200.111,650.9464545152199,990.2042587820426,844.7430171476176,837.2775535362774,1200.8090304623472
1533057200.115,402.05429816730555,856.7020208870202,930.1659222919029,717.6680651382896,992.2168960362868
1533057200.1179998,239.31523394423147,789.9395090193951,930.1659222919029,608.9260930944664,949.9361888562445
1533057200.1220002,473.84690787515973,845.5597450155974,1010.8458102885705,636.1171534806036,1113.4246688315036
1533057200.1260002,784.9645539043217,890.0604909806049,1006.1027931409529,744.847990774064,941.4788928405752
1533057200.13,636.5859720982338,1001.3237488132374,802.0364242241918,750.2928837015091,910.4726560486573
1533057200.1339998,469.0633478618565,1056.9667706496678,683.3929604517159,717.6680651382896,797.7164063708057
1533057200.1379998,344.6221708764375,878.94100094941,635.9336310832389,576.3124092816098,659.5998144425545
1533057200.1420002,536.0723975564074,778.8200189882002,688.1359775993335,532.8089396138628,930.2044224524509
1533057200.1460001,856.757163612176,867.8215109182152,740.3383241154282,706.7894140337621,989.3939487655275
1533057200.15,770.6040714873357,979.0847687508477,659.6584361187605,799.2189767959755,637.0451007680017
1533057200.154,670.0904969455092,1112.5870066458701,645.4293846759077,815.5313860775854,701.8805216225968
1533057200.157,483.4238302788426,1123.706496677065,569.4925138268577,744.847990774064,758.2528735632184
1533057200.161,459.4864254581736,945.7035128170352,593.2173188623793,619.804744198994,637.0451007680017
1533057200.165,799.3152339442315,890.0604909806049,773.5588827436188,723.1018233153719,766.7101695788876
1533057200.169,808.8921563479144,1034.70500474705,716.6135190799065,875.3361302765793,831.5455904334829
1533057200.1729999,636.5859720982338,1090.3480265834803,640.6766482308565,869.9023720994969,594.7643935879594
1533057200.177,469.0633478618565,1045.824494778245,593.2173188623793,820.9651442546676,515.8373279727849
1533057200.181,531.2888375431043,1034.70500474705,522.0331844583806,744.847990774064,933.0215968249059
1533057200.185,885.4683260690717,1101.467516614675,578.9882674195266,842.7113117133597,1026.0403072006598
1533057200.189,828.0361987782037,1090.3480265834803,574.2355309744753,946.0195255801007,794.8992319983506
1533057200.1929998,593.5045248472754,1023.5855147158552,578.9882674195266,891.648539558189,690.6060512344725
1533057200.197,382.9102557370162,912.3222568832226,664.4111725638118,820.9651442546676,699.0633472501418
1533057200.2,430.77526300127784,912.3222568832226,806.7794413718094,761.1604000556738,817.4481727745992
1533057200.204,856.757163612176,1023.5855147158552,968.1392173651448,864.4686139224146,955.5705376011546
1533057200.208,799.3152339442315,990.2042587820426,1063.0481568046653,924.2733581214086,1037.3147775887842
1533057200.2120001,560.0,1068.0862606808626,1134.2420105060978,891.648539558189,1293.8277408381011
1533057200.216,483.4238302788426,1157.0877526108775,1067.8008932497164,897.0822977352713,1076.7783103963714
1533057200.22,421.1983405975949,1190.46900854469,963.3864809200935,733.9804744198993,941.4788928405752
1533057200.224,674.8740569588125,1279.470500474705,977.62525166038,706.7894140337621,1059.8694912633368
1533057200.228,732.3061842496805,1301.7322663773227,877.9635757758082,831.8437953591952,1011.9486624400804
1533057200.232,483.4238302788426,1234.9697545096976,844.7430171476176,739.4142325969817,1288.1876191948868
1533057200.236,320.68476605576853,1123.706496677065,840.0,576.3124092816098,989.3939487655275
1533057200.24,287.18024120849304,1234.9697545096976,858.9817878879041,527.3751814367805,752.6185248183083
1533057200.2429998,593.5045248472754,1312.8517564085175,1015.5888274361882,592.6248185632195,955.5705376011546
1533057200.2470002,737.0995466400602,1157.0877526108775,1001.3597759933353,750.2928837015091,792.0820576258956
1533057200.2510002,579.1440424302893,1112.5870066458701,901.6981001087636,859.0237209949695,907.649708777898
1533057200.255,440.34238302788424,1090.3480265834803,882.7163122208594,782.9065675143659,966.8450079892789
1533057200.2589998,287.18024120849304,990.2042587820426,844.7430171476176,657.8633209392957,730.0695840420597
1533057200.2629998,521.7119151394213,1023.5855147158552,977.62525166038,701.3556558566798,679.3315808463482
1533057200.2670002,761.0271490836528,1101.467516614675,1015.5888274361882,864.4686139224146,690.6060512344725
1533057200.2710001,617.4419296679445,1068.0862606808626,953.9004466248582,913.3947070168811,896.3752383897737
1533057200.275,469.0633478618565,1056.9667706496678,982.3682688079975,739.4142325969817,1017.5830111849905
1533057200.279,339.8288084860579,1190.46900854469,982.3682688079975,614.3709860219116,1073.9611360239162
1533057200.282,550.4328799733936,1212.730774447308,949.1574294772406,663.297079116378,1183.8944384310087
1533057200.286,765.810709096956,1101.467516614675,858.9817878879041,777.4728093372835,896.3752383897737
1533057200.29,617.4419296679445,1056.9667706496678,783.0546363362877,820.9651442546676,972.4851296324932
1533057200.294,435.55882301458104,979.0847687508477,768.8158655960012,717.6680651382896,918.9241791660223
1533057200.2979999,306.3242836387824,1023.5855147158552,716.6135190799065,608.9260930944664,744.161228802639
1533057200.302,603.0814472509584,1068.0862606808626,688.1359775993335,630.6833953035214,1161.34549765476
1533057200.306,899.8288084860578,990.2042587820426,688.1359775993335,755.7266418785914,1110.6074944590484
1533057200.31,756.2435890703496,1034.70500474705,621.6948603429523,842.7113117133597,986.5767743930725
1533057200.314,569.5769224036829,1123.706496677065,593.2173188623793,777.4728093372835,902.015360032988
1533057200.3179998,421.1983405975949,1134.8487725484877,621.6948603429523,565.4337581770823,1088.0527807844956
1533057200.322,655.7300145285232,1179.3495185134952,740.3383241154282,587.1799256357743,845.6372351940622
1533057200.325,976.4147805842916,1201.588498575885,821.0182121120959,755.7266418785914,634.2279263955467
1533057200.329,828.0361987782037,1179.3495185134952,797.2934070765742,744.847990774064,628.5878047523323
1533057200.333,665.2971345551297,1101.467516614675,764.0728484483836,733.9804744198993,253.6900159785578
1533057200.3370001,497.78431269582876,1023.5855147158552,664.4111725638118,668.7419720438232,377.7149631462296
1533057200.341,583.937404820669,1101.467516614675,683.3929604517159,538.2538325413079,918.9241791660223
1533057200.345,942.9102557370162,1168.2072426420725,759.3201120033324,614.3709860219116,1057.0465439925777
1533057200.349,890.2616884594514,1168.2072426420725,697.6317311920025,723.1018233153719,783.6247616102263
1533057200.353,708.3785818060879,1246.0892445408924,759.3201120033324,717.6680651382896,718.7893407556312
1533057200.357,531.2888375431043,1168.2072426420725,882.7163122208594,668.7419720438232,777.984639967012
1533057200.361,579.1440424302893,1034.70500474705,968.1392173651448,663.297079116378,1119.0590175764137
1533057200.3639998,904.6221708764375,1034.70500474705,1029.8275981764746,804.6638697234207,1045.7720736044535
1533057200.3679998,832.819758791507,1090.3480265834803,1053.56212250943,859.0237209949695,958.3877119736096
1533057200.3720002,627.009049694551,1190.46900854469,1006.1027931409529,761.1604000556738,1203.6262048348024
1533057200.3760002,440.34238302788424,1190.46900854469,982.3682688079975,614.3709860219116,927.3814751816917
1533057200.38,378.126695723713,1079.2057507120576,1044.0663689167611,505.6290139780884,676.5086335755889
1533057200.3839998,679.6576169721158,1056.9667706496678,1072.5439103973342,511.0627721551707,591.9472192155043
1533057200.3879998,679.6576169721158,956.82300284823,968.1392173651448,565.4337581770823,687.7831039637132
1533057200.3920002,526.4954751527246,878.94100094941,934.9186587369542,641.550911657686,1305.1022112262256
1533057200.3960001,378.126695723713,856.7020208870202,930.1659222919029,565.4337581770823,1330.4683263749291
1533057200.4,320.68476605576853,712.0575071205751,835.2569828523824,462.1366790607043,845.6372351940622
1533057200.404,655.7300145285232,656.4372711243727,877.9635757758082,554.5662418229177,656.7768671717953
1533057200.407,756.2435890703496,734.3192730231927,968.1392173651448,712.2343069612074,710.3378176382661
1533057200.411,579.1440424302893,823.3207649532077,1048.8093860643787,744.847990774064,741.344054430184
1533057200.415,402.05429816730555,945.7035128170352,1172.2055862819059,668.7419720438232,882.2835936291943
1533057200.419,287.18024120849304,1001.3237488132374,1176.9486034295235,608.9260930944664,854.0945312097315
1533057200.4229999,588.7209648339723,901.2027668520277,1162.7098326892371,668.7419720438232,684.9659295912581
1533057200.427,751.4600290570463,890.0604909806049,1210.1691620577142,793.7852186188933,834.3627648059378
1533057200.431,569.5769224036829,1079.2057507120576,1210.1691620577142,761.1604000556738,823.0882944178135
1533057200.435,449.9193054315672,1134.8487725484877,1101.021451877907,598.0585767403019,744.161228802639
1533057200.439,339.8288084860579,1090.3480265834803,996.6070395482841,494.75036287356096,761.0758208339777
1533057200.4429998,555.2164399866967,956.82300284823,1006.1027931409529,587.1799256357743,811.8138240296892
1533057200.447,756.2435890703496,823.3207649532077,1048.8093860643787,679.6094883979878,823.0882944178135
1533057200.45,588.7209648339723,812.2012749220128,1044.0663689167611,679.6094883979878,1031.680428843874
1533057200.454,425.98190061089815,867.8215109182152,911.1841344039988,657.8633209392957,969.6621823617339
1533057200.458,291.9736035988727,923.4417469144174,726.0995533751418,516.5076650826159,845.6372351940622
1533057200.4620001,531.2888375431043,1034.70500474705,821.0182121120959,527.3751814367805,1051.4121952476676
1533057200.466,818.4690787515973,1079.2057507120576,968.1392173651448,766.6052929831189,1175.4371424153394
1533057200.47,641.3695321115371,1023.5855147158552,887.459329368477,804.6638697234207,871.00912324107
1533057200.474,425.98190061089815,990.2042587820426,925.4229051442853,636.1171534806036,546.8435647647028
1533057200.478,272.81975879150696,990.2042587820426,911.1841344039988,511.0627721551707,786.4419359826813
1533057200.482,454.7028654448704,1001.3237488132374,825.7612292597136,511.0627721551707,794.8992319983506
1533057200.486,756.2435890703496,856.7020208870202,873.2205586281906,592.6248185632195,899.1924127622287
1533057200.4889998,636.5859720982338,689.7957412179574,811.522458519427,619.804744198994,1124.6991392196278
1533057200.4929998,469.0633478618565,678.6762511867626,816.2751949644783,630.6833953035214,978.1194783774032
1533057200.4970002,320.68476605576853,734.3192730231927,816.2751949644783,581.7461674586921,837.1799391783928
1533057200.5010002,473.84690787515973,745.4387630543878,792.540670631523,598.0585767403019,738.5211071594248
1533057200.505,784.9645539043217,589.6747592567476,825.7612292597136,712.2343069612074,1000.6741920519561
1533057200.5089998,708.3785818060879,611.9137393191374,697.6317311920025,750.2928837015091,1166.9798463996701
1533057200.5129998,545.6395175830139,734.3192730231927,578.9882674195266,772.0390511602012,1028.8574815731147
1533057200.5170002,411.6312205709885,734.3192730231927,569.4925138268577,712.2343069612074,904.832534405443
1533057200.5210001,454.7028654448704,756.5582530855826,640.6766482308565,625.2385023760762,620.1362816349673
1533057200.525,732.3061842496805,723.17699715177,844.7430171476176,723.1018233153719,510.20297922787483
1533057200.529,698.8016594024051,745.4387630543878,911.1841344039988,804.6638697234207,969.6621823617339
1533057200.532,507.35143272243516,756.5582530855826,764.0728484483836,761.1604000556738,1172.6199680428845
1533057200.536,363.76621330672685,700.9380170893802,631.1906139356212,679.6094883979878,1113.4246688315036
1533057200.54,459.4864254581736,801.05899905059,612.2088260477171,663.297079116378,1068.321014380702
1533057200.544,856.757163612176,823.3207649532077,621.6948603429523,772.0390511602012,1023.2231328282047
1533057200.5479999,832.819758791507,667.5567611555676,569.4925138268577,859.0237209949695,761.0758208339777
1533057200.552,545.6395175830139,634.1755052217551,555.2537430865711,826.4100371821128,746.9784031750941
1533057200.556,387.69381575031946,667.5567611555676,450.8490500543818,679.6094883979878,727.2466367713005
1533057200.56,397.27073815400234,623.0560151905602,408.1327378335223,625.2385023760762,792.0820576258956
1533057200.564,775.3876315006389,623.0560151905602,503.05139657047647,744.847990774064,989.3939487655275
1533057200.5679998,799.3152339442315,678.6762511867626,526.7859209034318,766.6052929831189,989.3939487655275
1533057200.572,531.2888375431043,712.0575071205751,517.290167310763,695.9218976795976,1127.516313592083
1533057200.575,387.69381575031946,812.2012749220128,488.81262583019,603.4923349173841,890.7408896448636
1533057200.579,382.9102557370162,934.5840227858403,450.8490500543818,532.8089396138628,501.74568321220556
1533057200.583,741.8831066533635,890.0604909806049,507.7944137180941,598.0585767403019,696.2403999793825
1533057200.5870001,842.3966811951898,845.5597450155974,645.4293846759077,766.6052929831189,944.2960672130303
1533057200.591,670.0904969455092,789.9395090193951,664.4111725638118,853.5899628178872,763.8929952064326
1533057200.595,521.7119151394213,756.5582530855826,602.7130724550483,777.4728093372835,656.7768671717953
1533057200.599,478.6402702655394,867.8215109182152,654.9154189711429,706.7894140337621,927.3814751816917
1533057200.603,808.8921563479144,823.3207649532077,740.3383241154282,777.4728093372835,1048.5892479769084
1533057200.607,899.8288084860578,823.3207649532077,711.8607826348552,869.9023720994969,972.4851296324932
1533057200.611,636.5859720982338,878.94100094941,664.4111725638118,810.0976279005031,902.015360032988
1533057200.6139998,454.7028654448704,934.5840227858403,635.9336310832389,706.7894140337621,707.5148703675068
1533057200.6179998,330.2616884594514,1023.5855147158552,659.6584361187605,598.0585767403019,766.7101695788876
1533057200.6220002,555.2164399866967,1056.9667706496678,730.852289820193,527.3751814367805,921.7471264367816
1533057200.6260002,765.810709096956,1056.9667706496678,764.0728484483836,690.4881395025153,862.5518272254008
1533057200.63,603.0814472509584,1079.2057507120576,692.8789947469511,793.7852186188933,637.0451007680017
1533057200.6339998,358.9728509163472,990.2042587820426,702.37474833962,674.1757302209055,718.7893407556312
1533057200.6379998,196.24358907034957,867.8215109182152,626.4378774905699,619.804744198994,794.8992319983506
1533057200.6420002,516.928355126118,867.8215109182152,692.8789947469511,685.04324657507,797.7164063708057
1533057200.6460001,837.6131211818866,912.3222568832226,873.2205586281906,772.0390511602012,975.3023040049482
1533057200.65,679.6576169721158,867.8215109182152,868.477541480573,826.4100371821128,1203.6262048348024
1533057200.654,497.78431269582876,912.3222568832226,830.5139657047648,831.8437953591952,913.2898304211124
1533057200.657,406.8378581806088,1134.8487725484877,811.522458519427,782.9065675143659,518.6602752435441
1533057200.661,627.009049694551,1201.588498575885,840.0,837.2775535362774,608.8560383485387
1533057200.665,890.2616884594514,1157.0877526108775,868.477541480573,924.2733581214086,777.984639967012
1533057200.669,770.6040714873357,1090.3480265834803,797.2934070765742,918.8284651939633,529.9347456316684
1533057200.6729999,583.937404820669,967.9424928794249,797.2934070765742,869.9023720994969,625.7706303798773
1533057200.677,421.1983405975949,867.8215109182152,759.3201120033324,744.847990774064,1104.9673728158343
1533057200.681,531.2888375431043,979.0847687508477,754.5770948557147,728.5467162428171,1034.497603216329
1533057200.685,828.0361987782037,990.2042587820426,877.9635757758082,864.4686139224146,766.7101695788876
1533057200.689,717.9555042097709,801.05899905059,802.0364242241918,886.2147813811067,755.4356991907633
1533057200.6929998,540.8559575697107,901.2027668520277,711.8607826348552,837.2775535362774,907.649708777898
1533057200.696,402.05429816730555,1012.4660246846603,588.4743017147617,733.9804744198993,873.8262976135251
1533057200.7,478.6402702655394,934.5840227858403,493.5653622752412,679.6094883979878,806.1737023864749
1533057200.704,847.180241208493,1023.5855147158552,522.0331844583806,799.2189767959755,904.832534405443
1533057200.708,808.8921563479144,1134.8487725484877,545.767708791336,853.5899628178872,930.2044224524509
1533057200.7120001,550.4328799733936,1157.0877526108775,555.2537430865711,761.1604000556738,966.8450079892789
1533057200.716,296.75716361217593,1012.4660246846603,702.37474833962,636.1171534806036,1057.0465439925777
1533057200.72,282.39668119518984,845.5597450155974,759.3201120033324,576.3124092816098,969.6621823617339
1533057200.724,674.8740569588125,834.4402549844026,802.0364242241918,630.6833953035214,772.350291222102
1533057200.728,717.9555042097709,834.4402549844026,911.1841344039988,723.1018233153719,707.5148703675068
1533057200.732,526.4954751527246,756.5582530855826,806.7794413718094,733.9804744198993,541.2092160197928
1533057200.736,330.2616884594514,656.4372711243727,778.3018998912364,587.1799256357743,687.7831039637132
1533057200.7389998,320.68476605576853,611.9137393191374,877.9635757758082,532.8089396138628,918.9241791660223
1533057200.7429998,708.3785818060879,767.6777431167774,920.6798879966676,641.550911657686,831.5455904334829
1533057200.7470002,751.4600290570463,867.8215109182152,858.9817878879041,674.1757302209055,868.1861759703108
1533057200.7510002,550.4328799733936,812.2012749220128,792.540670631523,652.4295627622134,1150.0652543683316
1533057200.755,378.126695723713,756.5582530855826,697.6317311920025,614.3709860219116,1231.8152672542653
1533057200.7589998,282.39668119518984,723.17699715177,635.9336310832389,473.0041954148689,792.0820576258956
1533057200.7629998,583.937404820669,645.29499525295,806.7794413718094,538.2538325413079,1026.0403072006598
1533057200.7670002,737.0995466400602,700.9380170893802,830.5139657047648,782.9065675143659,1316.3766816143498
1533057200.7710001,555.2164399866967,890.0604909806049,669.1541897114295,766.6052929831189,1023.2231328282047
1533057200.775,339.8288084860579,923.4417469144174,635.9336310832389,576.3124092816098,1034.497603216329
1533057200.779,320.68476605576853,945.7035128170352,621.6948603429523,467.57043723778656,1186.7116128034638
1533057200.782,646.1530921248403,979.0847687508477,640.6766482308565,516.5076650826159,718.7893407556312
1533057200.786,741.8831066533635,967.9424928794249,716.6135190799065,636.1171534806036,727.2466367713005
1533057200.79,569.5769224036829,979.0847687508477,635.9336310832389,630.6833953035214,1034.497603216329
1533057200.794,449.9193054315672,878.94100094941,526.7859209034318,538.2538325413079,927.3814751816917
1533057200.7979999,354.18929090304397,812.2012749220128,550.5107259389536,516.5076650826159,916.1070047935674
1533057200.802,560.0,823.3207649532077,564.74949667924,527.3751814367805,941.4788928405752
1533057200.806,765.810709096956,867.8215109182152,688.1359775993335,663.297079116378,879.4664192567393
1533057200.81,579.1440424302893,912.3222568832226,854.2387707402864,712.2343069612074,777.984639967012
1533057200.814,363.76621330672685,878.94100094941,830.5139657047648,614.3709860219116,546.8435647647028
1533057200.8179998,282.39668119518984,901.2027668520277,825.7612292597136,549.1213488954726,876.6434719859801
1533057200.821,550.4328799733936,967.9424928794249,1025.084581028857,505.6290139780884,899.1924127622287
1533057200.825,837.6131211818866,945.7035128170352,1120.0032397658113,630.6833953035214,890.7408896448636
1533057200.829,689.2345393757986,967.9424928794249,1048.8093860643787,723.1018233153719,792.0820576258956
1533057200.833,440.34238302788424,967.9424928794249,1067.8008932497164,636.1171534806036,338.25720323694657
1533057200.8370001,268.0361987782037,856.7020208870202,1053.56212250943,576.3124092816098,637.0451007680017
1533057200.841,521.7119151394213,867.8215109182152,1048.8093860643787,619.804744198994,899.1924127622287
1533057200.845,837.6131211818866,1068.0862606808626,925.4229051442853,668.7419720438232,927.3814751816917
1533057200.849,684.4509793624954,1090.3480265834803,778.3018998912364,646.9846698347683,823.0882944178135
1533057200.853,516.928355126118,923.4417469144174,792.540670631523,636.1171534806036,524.2946239884542
1533057200.857,387.69381575031946,823.3207649532077,797.2934070765742,598.0585767403019,887.9179423741044
1533057200.861,550.4328799733936,878.94100094941,887.459329368477,565.4337581770823,913.2898304211124
1533057200.8639998,895.0452484727547,1056.9667706496678,1039.3233517691435,706.7894140337621,656.7768671717953
1533057200.8679998,756.2435890703496,990.2042587820426,939.6616758845718,799.2189767959755,876.6434719859801
1533057200.8720002,583.937404820669,912.3222568832226,816.2751949644783,777.4728093372835,910.4726560486573
1533057200.8760002,392.47737576362266,812.2012749220128,773.5588827436188,685.04324657507,713.1549920107211
1533057200.88,392.47737576362266,634.1755052217551,811.522458519427,636.1171534806036,479.19674243595693
1533057200.8839998,775.3876315006389,712.0575071205751,787.7976534839053,712.2343069612074,501.74568321220556
1533057200.8879998,780.1711915139422,945.7035128170352,683.3929604517159,777.4728093372835,707.5148703675068
1533057200.8920002,598.2978872376551,945.7035128170352,773.5588827436188,723.1018233153719,975.3023040049482
1533057200.8960001,335.0452484727546,712.0575071205751,764.0728484483836,505.6290139780884,865.3690015978558
1533057200.9,363.76621330672685,712.0575071205751,816.2751949644783,483.8828465193963,902.015360032988
1533057200.904,756.2435890703496,789.9395090193951,1029.8275981764746,625.2385023760762,1045.7720736044535
1533057200.907,717.9555042097709,767.6777431167774,1086.7826811376206,685.04324657507,947.1132415854853
1533057200.911,473.84690787515973,767.6777431167774,1077.2869275449518,652.4295627622134,820.2711200453585
1533057200.915,301.5407236254792,789.9395090193951,1034.580334621526,565.4337581770823,918.9241791660223
1533057200.919,287.18024120849304,923.4417469144174,1010.8458102885705,511.0627721551707,1183.8944384310087
1533057200.9229999,612.6485672775648,967.9424928794249,1134.2420105060978,516.5076650826159,1127.516313592083
1533057200.927,737.0995466400602,967.9424928794249,1039.3233517691435,663.297079116378,848.4544095665171
1533057200.931,555.2164399866967,967.9424928794249,816.2751949644783,706.7894140337621,684.9659295912581
1533057200.935,325.4781284461482,923.4417469144174,745.0813412630458,511.0627721551707,572.2154528117107
1533057200.939,220.17119151394212,767.6777431167774,730.852289820193,347.9609488397988,831.5455904334829
1533057200.9429998,512.1447951128149,567.41299335413,797.2934070765742,413.19945121587494,817.4481727745992
1533057200.946,650.9464545152199,511.7927573579276,873.2205586281906,538.2538325413079,634.2279263955467
1533057200.95,473.84690787515973,600.7942492879425,740.3383241154282,456.70292088362197,707.5148703675068
1533057200.954,339.8288084860579,611.9137393191374,578.9882674195266,364.27335812140853,662.4169888150095
1533057200.958,263.2526387649005,578.5552692255527,493.5653622752412,353.39470701688106,772.350291222102
1533057200.9620001,574.3604824169861,600.7942492879425,612.2088260477171,429.51186049748475,806.1737023864749
1533057200.966,722.7390642230741,522.9122473891225,797.2934070765742,587.1799256357743,904.832534405443
1533057200.97,478.6402702655394,378.2905194629052,716.6135190799065,592.6248185632195,1082.4184320395857
1533057200.974,282.39668119518984,467.29201139292013,654.9154189711429,483.8828465193963,1093.69290242771
1533057200.978,138.81146177948153,700.9380170893802,631.1906139356212,364.27335812140853,1113.4246688315036
1533057200.982,397.27073815400234,801.05899905059,669.1541897114295,429.51186049748475,1133.156435235297
1533057200.986,603.0814472509584,901.2027668520277,607.4560896026659,625.2385023760762,1293.8277408381011
1533057200.9889998,421.1983405975949,1023.5855147158552,621.6948603429523,657.8633209392957,1065.503840008247
1533057200.9929998,258.46907875159724,1068.0862606808626,711.8607826348552,516.5076650826159,1054.2293696201227
1533057200.9970002,220.17119151394212,1101.467516614675,541.0149723462847,429.51186049748475,1254.364208030514
1533057201.0010002,507.35143272243516,1179.3495185134952,545.767708791336,516.5076650826159,933.0215968249059
1533057201.005,684.4509793624954,1056.9667706496678,707.1177654872376,603.4923349173841,907.649708777898
1533057201.0089998,483.4238302788426,912.3222568832226,745.0813412630458,619.804744198994,794.8992319983506
1533057201.0129998,339.8288084860579,923.4417469144174,726.0995533751418,570.8675163541646,800.5393536415648
1533057201.0170002,196.24358907034957,956.82300284823,659.6584361187605,467.57043723778656,862.5518272254008
1533057201.0210001,315.9012060424653,956.82300284823,711.8607826348552,532.8089396138628,763.8929952064326
1533057201.025,655.7300145285232,745.4387630543878,783.0546363362877,690.4881395025153,845.6372351940622
1533057201.029,583.937404820669,556.2935033229351,844.7430171476176,674.1757302209055,820.2711200453585
1533057201.032,402.05429816730555,589.6747592567476,768.8158655960012,603.4923349173841,896.3752383897737
1533057201.036,272.81975879150696,723.17699715177,541.0149723462847,434.945618674567,721.6122880263904
1533057201.04,387.69381575031946,856.7020208870202,536.2719551986671,375.1408744755731,281.87907839802074
1533057201.044,770.6040714873357,801.05899905059,635.9336310832389,527.3751814367805,200.1348384103912
1533057201.0479999,722.7390642230741,778.8200189882002,692.8789947469511,657.8633209392957,318.5254368331529
1533057201.052,483.4238302788426,789.9395090193951,811.522458519427,636.1171534806036,250.87284160610278
1533057201.056,258.46907875159724,789.9395090193951,802.0364242241918,489.31660469647863,343.8915519818566
1533057201.06,363.76621330672685,789.9395090193951,702.37474833962,456.70292088362197,780.8075872377713
1533057201.064,789.748113917625,745.4387630543878,816.2751949644783,630.6833953035214,848.4544095665171
1533057201.0679998,765.810709096956,678.6762511867626,911.1841344039988,782.9065675143659,696.2403999793825
1533057201.071,564.7933623903797,634.1755052217551,863.7248050355217,772.0390511602012,949.9361888562445
1533057201.075,354.18929090304397,689.7957412179574,778.3018998912364,608.9260930944664,1237.4496159991752
1533057201.079,368.5497733200301,689.7957412179574,664.4111725638118,494.75036287356096,1026.0403072006598
1533057201.083,789.748113917625,700.9380170893802,616.9518431953347,587.1799256357743,1071.1439616514613
1533057201.0870001,813.6757163612176,767.6777431167774,583.7312845671441,695.9218976795976,1186.7116128034638
1533057201.091,593.5045248472754,812.2012749220128,593.2173188623793,663.297079116378,868.1861759703108
1533057201.095,449.9193054315672,823.3207649532077,597.9700553074306,598.0585767403019,572.2154528117107
1533057201.099,406.8378581806088,778.8200189882002,607.4560896026659,565.4337581770823,583.4899231998351
1533057201.103,703.5950217927848,845.5597450155974,645.4293846759077,625.2385023760762,515.8373279727849
1533057201.107,780.1711915139422,956.82300284823,597.9700553074306,723.1018233153719,467.91649914952836
1533057201.111,579.1440424302893,1001.3237488132374,469.8308379422859,695.9218976795976,882.2835936291943
1533057201.1139998,435.55882301458104,979.0847687508477,422.3715085738088,646.9846698347683,916.1070047935674
1533057201.1179998,368.5497733200301,867.8215109182152,536.2719551986671,636.1171534806036,704.6976959950518
1533057201.1220002,627.009049694551,778.8200189882002,669.1541897114295,685.04324657507,583.4899231998351
1533057201.1260002,741.8831066533635,823.3207649532077,654.9154189711429,755.7266418785914,718.7893407556312
1533057201.13,579.1440424302893,823.3207649532077,593.2173188623793,766.6052929831189,1034.497603216329
1533057201.1339998,469.0633478618565,890.0604909806049,602.7130724550483,728.5467162428171,1076.7783103963714
1533057201.1379998,344.6221708764375,956.82300284823,612.2088260477171,619.804744198994,964.0278336168238
1533057201.1420002,569.5769224036829,823.3207649532077,616.9518431953347,614.3709860219116,524.2946239884542
1533057201.1460001,761.0271490836528,767.6777431167774,588.4743017147617,755.7266418785914,414.3613215813618
1533057201.15,607.8650072642616,823.3207649532077,503.05139657047647,782.9065675143659,910.4726560486573
1533057201.1529999,430.77526300127784,912.3222568832226,488.81262583019,674.1757302209055,1135.9736096077522
1533057201.157,287.18024120849304,1012.4660246846603,436.6102793140953,565.4337581770823,997.8512447811969
1533057201.161,603.0814472509584,1056.9667706496678,446.10603290676414,641.550911657686,992.2168960362868
1533057201.165,871.1176460291621,1045.824494778245,522.0331844583806,831.8437953591952,845.6372351940622
1533057201.169,631.8024120849306,1034.70500474705,398.6467035382871,848.1562046408048,811.8138240296892
1533057201.1729999,382.9102557370162,979.0847687508477,351.18737416981,717.6680651382896,876.6434719859801
1533057201.177,215.38763150063892,1090.3480265834803,351.18737416981,619.804744198994,699.0633472501418
1533057201.181,435.55882301458104,1157.0877526108775,398.6467035382871,663.297079116378,1104.9673728158343
1533057201.185,741.8831066533635,1145.9682625796827,635.9336310832389,837.2775535362774,1282.5532704499767
1533057201.189,674.8740569588125,1190.46900854469,740.3383241154282,918.8284651939633,989.3939487655275
1533057201.1929998,540.8559575697107,1301.7322663773227,683.3929604517159,891.648539558189,797.7164063708057
1533057201.196,378.126695723713,1390.7337583073377,707.1177654872376,755.7266418785914,859.7346528529457
1533057201.2,526.4954751527246,1268.3510104435102,858.9817878879041,723.1018233153719,842.8200608216072
1533057201.204,794.5316739309283,1034.70500474705,949.1574294772406,831.8437953591952,803.3565280140199
1533057201.208,646.1530921248403,923.4417469144174,920.6798879966676,880.7698884536616,549.6665120354621
1533057201.2120001,449.9193054315672,1056.9667706496678,915.93687084905,837.2775535362774,355.1660223699809
1533057201.216,330.2616884594514,1134.8487725484877,901.6981001087636,723.1018233153719,718.7893407556312
1533057201.22,497.78431269582876,1045.824494778245,802.0364242241918,712.2343069612074,772.350291222102
1533057201.224,813.6757163612176,1001.3237488132374,707.1177654872376,826.4100371821128,845.6372351940622
1533057201.228,698.8016594024051,912.3222568832226,702.37474833962,859.0237209949695,814.6309984021442
1533057201.232,445.1357454182639,812.2012749220128,759.3201120033324,782.9065675143659,606.0388639760837
1533057201.236,263.2526387649005,789.9395090193951,673.8972068590471,701.3556558566798,783.6247616102263
1533057201.2389998,349.40573088974077,856.7020208870202,559.9967602341887,549.1213488954726,896.3752383897737
1533057201.2429998,727.5226242363773,923.4417469144174,607.4560896026659,527.3751814367805,1172.6199680428845
1533057201.2470002,746.6666666666666,979.0847687508477,588.4743017147617,712.2343069612074,947.1132415854853
1533057201.2510002,598.2978872376551,934.5840227858403,569.4925138268577,739.4142325969817,631.4107520230916
1533057201.255,397.27073815400234,834.4402549844026,692.8789947469511,560.0,814.6309984021442
1533057201.2589998,330.2616884594514,723.17699715177,754.5770948557147,489.31660469647863,1003.4913664244111
1533057201.2629998,627.009049694551,656.4372711243727,792.540670631523,603.4923349173841,1350.2000927787228
1533057201.2670002,679.6576169721158,767.6777431167774,692.8789947469511,695.9218976795976,871.00912324107
1533057201.2710001,469.0633478618565,834.4402549844026,531.5289380510494,674.1757302209055,467.91649914952836
1533057201.275,229.74811391762503,789.9395090193951,588.4743017147617,532.8089396138628,865.3690015978558
1533057201.2779999,134.01809938910185,812.2012749220128,635.9336310832389,396.8870419342652,1274.0959744343074
1533057201.282,507.35143272243516,856.7020208870202,711.8607826348552,483.8828465193963,1034.497603216329
1533057201.286,660.5135745418264,712.0575071205751,811.522458519427,668.7419720438232,769.533116849647
1533057201.29,406.8378581806088,511.7927573579276,835.2569828523824,668.7419720438232,659.5998144425545
1533057201.294,181.88310665336343,545.1740132917402,906.4411172563812,516.5076650826159,1006.3085407968662
1533057201.2979999,86.15309212484027,678.6762511867626,830.5139657047648,407.7656930387927,1248.7240863872996
1533057201.302,473.84690787515973,756.5582530855826,844.7430171476176,554.5662418229177,935.838771197361
1533057201.306,698.8016594024051,778.8200189882002,887.459329368477,750.2928837015091,902.015360032988
1533057201.31,560.0,834.4402549844026,811.522458519427,744.847990774064,665.2341631874646
1533057201.314,416.4147805842917,878.94100094941,811.522458519427,636.1171534806036,721.6122880263904
1533057201.3179998,354.18929090304397,867.8215109182152,797.2934070765742,614.3709860219116,1212.0835008504716
1533057201.321,650.9464545152199,812.2012749220128,816.2751949644783,663.297079116378,992.2168960362868
1533057201.325,799.3152339442315,778.8200189882002,920.6798879966676,761.1604000556738,684.9659295912581
1533057201.329,579.1440424302893,734.3192730231927,858.9817878879041,772.0390511602012,978.1194783774032
1533057201.333,435.55882301458104,545.1740132917402,783.0546363362877,733.9804744198993,955.5705376011546
1533057201.3370001,320.68476605576853,445.03024549030243,806.7794413718094,641.550911657686,777.984639967012
1533057201.341,516.928355126118,545.1740132917402,868.477541480573,619.804744198994,668.0513375599196
1533057201.345,799.3152339442315,656.4372711243727,930.1659222919029,793.7852186188933,507.3800319571156
1533057201.349,689.2345393757986,834.4402549844026,830.5139657047648,848.1562046408048,865.3690015978558
1533057201.353,531.2888375431043,901.2027668520277,797.2934070765742,723.1018233153719,1183.8944384310087
1533057201.357,344.6221708764375,901.2027668520277,797.2934070765742,641.550911657686,941.4788928405752
1533057201.361,560.0,979.0847687508477,944.4046930321894,820.9651442546676,783.6247616102263
1533057201.3639998,885.4683260690717,1056.9667706496678,1053.56212250943,940.5857674030183,1011.9486624400804
1533057201.3679998,679.6576169721158,1090.3480265834803,1044.0663689167611,864.4686139224146,1071.1439616514613
1533057201.3720002,454.7028654448704,1023.5855147158552,1063.0481568046653,875.3361302765793,1082.4184320395857
1533057201.3760002,306.3242836387824,878.94100094941,911.1841344039988,777.4728093372835,1076.7783103963714
1533057201.38,435.55882301458104,801.05899905059,949.1574294772406,717.6680651382896,1000.6741920519561
1533057201.3839998,756.2435890703496,845.5597450155974,1096.2687154328557,859.0237209949695,1037.3147775887842
1533057201.3879998,698.8016594024051,912.3222568832226,1001.3597759933353,973.199451215875,1023.2231328282047
1533057201.3920002,593.5045248472754,923.4417469144174,963.3864809200935,994.9456186745671,732.8867584145147
1533057201.3960001,449.9193054315672,1023.5855147158552,1053.56212250943,886.2147813811067,704.6976959950518
1533057201.4,445.1357454182639,1012.4660246846603,1020.3415638812395,755.7266418785914,648.319571156126
1533057201.4029999,765.810709096956,979.0847687508477,1020.3415638812395,788.351460441811,1017.5830111849905
1533057201.407,775.3876315006389,967.9424928794249,996.6070395482841,924.2733581214086,1367.1146848100614
1533057201.411,526.4954751527246,867.8215109182152,882.7163122208594,897.0822977352713,1031.680428843874
1533057201.415,277.6131211818866,789.9395090193951,811.522458519427,815.5313860775854,707.5148703675068
1533057201.419,368.5497733200301,812.2012749220128,835.2569828523824,853.5899628178872,899.1924127622287
1533057201.4229999,775.3876315006389,823.3207649532077,939.6616758845718,929.7071162984909,938.655945569816
1533057201.427,756.2435890703496,734.3192730231927,991.8640224006665,1027.5704372377866,854.0945312097315
1533057201.431,545.6395175830139,812.2012749220128,953.9004466248582,967.7656930387926,828.7226431627236
1533057201.435,325.4781284461482,912.3222568832226,915.93687084905,755.7266418785914,532.7519200041235
1533057201.439,287.18024120849304,945.7035128170352,958.6434637724759,690.4881395025153,535.5690943765785
1533057201.4429998,627.009049694551,912.3222568832226,1077.2869275449518,826.4100371821128,780.8075872377713
1533057201.446,660.5135745418264,789.9395090193951,1086.7826811376206,913.3947070168811,823.0882944178135
1533057201.45,512.1447951128149,756.5582530855826,1025.084581028857,973.199451215875,1059.8694912633368
1533057201.454,382.9102557370162,912.3222568832226,925.4229051442853,869.9023720994969,777.984639967012
1533057201.458,272.81975879150696,1023.5855147158552,783.0546363362877,614.3709860219116,315.7024895623937
1533057201.4620001,636.5859720982338,1090.3480265834803,825.7612292597136,603.4923349173841,501.74568321220556
1533057201.466,861.5407236254791,1257.231520412315,953.9004466248582,782.9065675143659,786.4419359826813
1533057201.47,650.9464545152199,1335.1135223111353,858.9817878879041,837.2775535362774,800.5393536415648
1533057201.474,406.8378581806088,1290.6127763461277,773.5588827436188,695.9218976795976,668.0513375599196
1533057201.478,263.2526387649005,1179.3495185134952,721.3565362275241,500.1952558010061,752.6185248183083
1533057201.482,579.1440424302893,1090.3480265834803,802.0364242241918,538.2538325413079,1110.6074944590484
1533057201.485,808.8921563479144,1201.588498575885,930.1659222919029,750.2928837015091,1234.6324416267203
1533057201.4889998,574.3604824169861,1168.2072426420725,811.522458519427,777.4728093372835,916.1070047935674
1533057201.4929998,368.5497733200301,1068.0862606808626,768.8158655960012,592.6248185632195,529.9347456316684
1533057201.4970002,296.75716361217593,1056.9667706496678,863.7248050355217,424.0781023204024,724.4294623988454
1533057201.5010002,588.7209648339723,1045.824494778245,797.2934070765742,511.0627721551707,792.0820576258956
1533057201.505,804.1085963346111,1056.9667706496678,654.9154189711429,674.1757302209055,510.20297922787483
1533057201.5089998,636.5859720982338,1079.2057507120576,645.4293846759077,723.1018233153719,603.2216896036286
1533057201.5129998,464.27978784855327,1056.9667706496678,735.5953069678106,695.9218976795976,840.0028864491521
1533057201.5170002,368.5497733200301,1068.0862606808626,726.0995533751418,641.550911657686,1057.0465439925777
1533057201.5210001,650.9464545152199,1079.2057507120576,702.37474833962,668.7419720438232,997.8512447811969
1533057201.525,914.189290903044,1134.8487725484877,783.0546363362877,772.0390511602012,949.9361888562445
1533057201.5279999,727.5226242363773,1201.588498575885,797.2934070765742,755.7266418785914,1099.32725117262
1533057201.532,521.7119151394213,1145.9682625796827,697.6317311920025,652.4295627622134,825.9054687902685
1533057201.536,411.6312205709885,1090.3480265834803,673.8972068590471,619.804744198994,679.3315808463482
1533057201.54,593.5045248472754,1090.3480265834803,764.0728484483836,652.4295627622134,879.4664192567393
1533057201.544,832.819758791507,1045.824494778245,783.0546363362877,723.1018233153719,930.2044224524509
1533057201.5479999,732.3061842496805,1023.5855147158552,792.540670631523,782.9065675143659,896.3752383897737
1533057201.552,588.7209648339723,934.5840227858403,749.8340777080971,728.5467162428171,1104.9673728158343
1533057201.556,387.69381575031946,901.2027668520277,759.3201120033324,570.8675163541646,1195.168908819133
1533057201.56,521.7119151394213,1068.0862606808626,844.7430171476176,570.8675163541646,1245.9069120148447
1533057201.564,832.819758791507,1101.467516614675,868.477541480573,690.4881395025153,1192.351734446678
1533057201.5679998,713.1621418193912,1056.9667706496678,854.2387707402864,733.9804744198993,964.0278336168238
1533057201.571,502.56787270913196,1045.824494778245,792.540670631523,679.6094883979878,758.2528735632184
1533057201.575,272.81975879150696,1056.9667706496678,688.1359775993335,543.6875907183902,840.0028864491521
1533057201.579,335.0452484727546,1134.8487725484877,683.3929604517159,489.31660469647863,944.2960672130303
1533057201.583,746.6666666666666,1190.46900854469,707.1177654872376,598.0585767403019,676.5086335755889
1533057201.5870001,689.2345393757986,1023.5855147158552,664.4111725638118,657.8633209392957,549.6665120354621
1533057201.591,449.9193054315672,923.4417469144174,797.2934070765742,603.4923349173841,876.6434719859801
1533057201.595,277.6131211818866,1056.9667706496678,939.6616758845718,505.6290139780884,741.344054430184
1533057201.599,239.31523394423147,1079.2057507120576,911.1841344039988,451.2580279561768,1169.797020772125
1533057201.603,655.7300145285232,1101.467516614675,958.6434637724759,592.6248185632195,1054.2293696201227
1533057201.607,698.8016594024051,1190.46900854469,958.6434637724759,685.04324657507,792.0820576258956
1533057201.61,416.4147805842917,1168.2072426420725,977.62525166038,625.2385023760762,1057.0465439925777
1533057201.6139998,301.5407236254792,1212.730774447308,1172.2055862819059,554.5662418229177,958.3877119736096
1533057201.6179998,354.18929090304397,1246.0892445408924,1295.5920672019995,527.3751814367805,1090.875728055255
1533057201.6220002,727.5226242363773,1145.9682625796827,1290.8490500543817,674.1757302209055,1223.3579712385958
1533057201.6260002,804.1085963346111,934.5840227858403,1110.5074861731423,717.6680651382896,927.3814751816917
1533057201.63,617.4419296679445,767.6777431167774,1082.0299446925694,701.3556558566798,961.2106592443688
1533057201.6339998,435.55882301458104,823.3207649532077,1115.25050332076,641.550911657686,896.3752383897737
1533057201.6379998,358.9728509163472,912.3222568832226,1138.9850276537154,527.3751814367805,823.0882944178135
1533057201.6420002,751.4600290570463,1001.3237488132374,1210.1691620577142,685.04324657507,893.5580640173187
1533057201.6460001,914.189290903044,1001.3237488132374,1262.371508573809,842.7113117133597,718.7893407556312
1533057201.65,698.8016594024051,945.7035128170352,1281.353296461713,831.8437953591952,1026.0403072006598
1533057201.6529999,526.4954751527246,990.2042587820426,1271.8672621664778,706.7894140337621,938.655945569816
1533057201.657,435.55882301458104,1068.0862606808626,1281.353296461713,543.6875907183902,989.3939487655275
1533057201.661,708.3785818060879,1168.2072426420725,1357.2901673107629,614.3709860219116,1192.351734446678
1533057201.665,837.6131211818866,1101.467516614675,1324.0696086825724,706.7894140337621,1102.1501984433792
1533057201.669,636.5859720982338,956.82300284823,1205.4261449100966,717.6680651382896,1119.0590175764137
1533057201.6729999,492.9909503054491,934.5840227858403,1229.1509499456183,739.4142325969817,944.2960672130303
1533057201.677,392.47737576362266,856.7020208870202,1224.4079327980005,598.0585767403019,1096.510076800165
1533057201.681,622.2254896812477,856.7020208870202,1210.1691620577142,538.2538325413079,1220.540796866141
1533057201.685,794.5316739309283,901.2027668520277,1200.6734084650452,619.804744198994,865.3690015978558
1533057201.689,650.9464545152199,1001.3237488132374,1058.3051396570477,663.297079116378,507.3800319571156
1533057201.6929998,516.928355126118,1056.9667706496678,1006.1027931409529,603.4923349173841,752.6185248183083
1533057201.696,330.2616884594514,901.2027668520277,934.9186587369542,560.0,1090.875728055255
1533057201.7,483.4238302788426,856.7020208870202,858.9817878879041,587.1799256357743,763.8929952064326
1533057201.704,789.748113917625,834.4402549844026,944.4046930321894,717.6680651382896,555.3008607803721
1533057201.708,727.5226242363773,789.9395090193951,949.1574294772406,886.2147813811067,594.7643935879594
1533057201.7120001,492.9909503054491,700.9380170893802,892.2023465160947,826.4100371821128,1099.32725117262
1533057201.716,296.75716361217593,734.3192730231927,711.8607826348552,657.8633209392957,1011.9486624400804
1533057201.72,516.928355126118,823.3207649532077,650.1724018235253,701.3556558566798,842.8200608216072
1533057201.724,885.4683260690717,856.7020208870202,787.7976534839053,891.648539558189,924.5643008092367
1533057201.728,784.9645539043217,834.4402549844026,802.0364242241918,956.8870419342652,775.167465594557
1533057201.732,574.3604824169861,734.3192730231927,749.8340777080971,902.5271906627165,749.8013504458534
1533057201.735,306.3242836387824,767.6777431167774,650.1724018235253,744.847990774064,713.1549920107211
1533057201.7389998,354.18929090304397,812.2012749220128,593.2173188623793,646.9846698347683,882.2835936291943
1533057201.7429998,732.3061842496805,867.8215109182152,678.6402240066647,755.7266418785914,1144.4309056234215
1533057201.7470002,694.0180993891018,867.8215109182152,745.0813412630458,826.4100371821128,955.5705376011546
1533057201.7510002,473.84690787515973,801.05899905059,707.1177654872376,685.04324657507,811.8138240296892
1533057201.755,263.2526387649005,812.2012749220128,678.6402240066647,494.75036287356096,625.7706303798773
1533057201.7589998,382.9102557370162,778.8200189882002,716.6135190799065,451.2580279561768,527.1117983609092
1533057201.7629998,770.6040714873357,756.5582530855826,858.9817878879041,532.8089396138628,882.2835936291943
1533057201.7670002,703.5950217927848,789.9395090193951,887.459329368477,608.9260930944664,1034.497603216329
1533057201.7710001,545.6395175830139,778.8200189882002,749.8340777080971,636.1171534806036,918.9241791660223
1533057201.775,459.4864254581736,890.0604909806049,726.0995533751418,576.3124092816098,1181.0772640585537
1533057201.7779999,406.8378581806088,956.82300284823,764.0728484483836,462.1366790607043,1228.992319983506
1533057201.782,717.9555042097709,878.94100094941,787.7976534839053,608.9260930944664,916.1070047935674
1533057201.786,775.3876315006389,823.3207649532077,778.3018998912364,777.4728093372835,704.6976959950518
1533057201.79,545.6395175830139,890.0604909806049,759.3201120033324,761.1604000556738,1082.4184320395857
1533057201.794,378.126695723713,945.7035128170352,697.6317311920025,646.9846698347683,1138.7907839802072
1533057201.7979999,358.9728509163472,901.2027668520277,645.4293846759077,511.0627721551707,1020.4059584557497
1533057201.802,698.8016594024051,878.94100094941,702.37474833962,587.1799256357743,1262.8215040461832
1533057201.806,832.819758791507,823.3207649532077,802.0364242241918,717.6680651382896,876.6434719859801
1533057201.81,660.5135745418264,856.7020208870202,868.477541480573,723.1018233153719,527.1117983609092
1533057201.814,445.1357454182639,878.94100094941,825.7612292597136,668.7419720438232,823.0882944178135
1533057201.8179998,358.9728509163472,700.9380170893802,740.3383241154282,630.6833953035214,727.2466367713005
1533057201.821,751.4600290570463,589.6747592567476,892.2023465160947,761.1604000556738,498.9285088397505
1533057201.825,866.3242836387824,611.9137393191374,987.1210052530489,826.4100371821128,949.9361888562445
1533057201.829,555.2164399866967,678.6762511867626,849.4957535926688,652.4295627622134,777.984639967012
1533057201.833,435.55882301458104,845.5597450155974,730.852289820193,581.7461674586921,360.8061440131952
1533057201.8370001,378.126695723713,823.3207649532077,692.8789947469511,549.1213488954726,783.6247616102263
1533057201.841,607.8650072642616,823.3207649532077,754.5770948557147,565.4337581770823,1138.7907839802072
1533057201.845,847.180241208493,912.3222568832226,764.0728484483836,712.2343069612074,1062.686665635792
1533057201.849,737.0995466400602,901.2027668520277,659.6584361187605,772.0390511602012,1026.0403072006598
1533057201.853,550.4328799733936,923.4417469144174,626.4378774905699,679.6094883979878,1011.9486624400804
1533057201.857,435.55882301458104,956.82300284823,616.9518431953347,565.4337581770823,538.3862687490335
1533057201.86,694.0180993891018,901.2027668520277,688.1359775993335,646.9846698347683,668.0513375599196
1533057201.8639998,861.5407236254791,834.4402549844026,721.3565362275241,750.2928837015091,1307.9193855986805
1533057201.8679998,627.009049694551,689.7957412179574,621.6948603429523,712.2343069612074,1093.69290242771
1533057201.8720002,411.6312205709885,700.9380170893802,484.0696086825724,603.4923349173841,1000.6741920519561
1533057201.8760002,301.5407236254792,823.3207649532077,322.70983268923703,483.8828465193963,1220.540796866141
1533057201.88,588.7209648339723,890.0604909806049,275.2602226181936,598.0585767403019,1200.8090304623472
1533057201.8839998,933.3333333333334,901.2027668520277,422.3715085738088,766.6052929831189,1057.0465439925777
1533057201.8879998,804.1085963346111,812.2012749220128,503.05139657047647,815.5313860775854,868.1861759703108
1533057201.8920002,588.7209648339723,778.8200189882002,460.34480364705064,717.6680651382896,1068.321014380702
1533057201.8960001,425.98190061089815,789.9395090193951,412.88547427857355,565.4337581770823,887.9179423741044
1533057201.9,598.2978872376551,878.94100094941,545.767708791336,619.804744198994,634.2279263955467
1533057201.9029999,976.4147805842916,1012.4660246846603,607.4560896026659,810.0976279005031,845.6372351940622
1533057201.907,933.3333333333334,1123.706496677065,541.0149723462847,837.2775535362774,560.9409824235864
1533057201.911,622.2254896812477,1101.467516614675,654.9154189711429,690.4881395025153,749.8013504458534
1533057201.915,301.5407236254792,990.2042587820426,707.1177654872376,554.5662418229177,904.832534405443
1533057201.919,478.6402702655394,990.2042587820426,854.2387707402864,598.0585767403019,933.0215968249059
1533057201.9229999,895.0452484727547,1068.0862606808626,892.2023465160947,750.2928837015091,955.5705376011546
1533057201.927,847.180241208493,1168.2072426420725,688.1359775993335,766.6052929831189,549.6665120354621
1533057201.931,684.4509793624954,1301.7322663773227,697.6317311920025,733.9804744198993,808.99087675893
1533057201.935,521.7119151394213,1312.8517564085175,821.0182121120959,668.7419720438232,1017.5830111849905
1533057201.939,569.5769224036829,1223.8502644785026,721.3565362275241,603.4923349173841,918.9241791660223
1533057201.9420002,971.6214181939121,1157.0877526108775,669.1541897114295,652.4295627622134,814.6309984021442
1533057201.946,923.7662133067269,1168.2072426420725,721.3565362275241,739.4142325969817,645.502396783671
1533057201.95,713.1621418193912,1257.231520412315,645.4293846759077,712.2343069612074,797.7164063708057
1533057201.954,550.4328799733936,1290.6127763461277,555.2537430865711,576.3124092816098,995.0340704087419
1533057201.958,545.6395175830139,1312.8517564085175,583.7312845671441,527.3751814367805,989.3939487655275
1533057201.9620001,875.9012060424653,1257.231520412315,659.6584361187605,603.4923349173841,989.3939487655275
1533057201.966,885.4683260690717,1168.2072426420725,640.6766482308565,728.5467162428171,856.9117055821865
1533057201.97,636.5859720982338,1090.3480265834803,635.9336310832389,674.1757302209055,761.0758208339777
1533057201.974,330.2616884594514,1045.824494778245,626.4378774905699,489.31660469647863,755.4356991907633
1533057201.978,201.02714908365277,1123.706496677065,650.1724018235253,402.33193486171035,958.3877119736096
1533057201.982,516.928355126118,1168.2072426420725,726.0995533751418,462.1366790607043,1107.7845471882893
1533057201.985,627.009049694551,1179.3495185134952,783.0546363362877,543.6875907183902,817.4481727745992
1533057201.9889998,507.35143272243516,1246.0892445408924,773.5588827436188,554.5662418229177,687.7831039637132
1533057201.9929998,354.18929090304397,1290.6127763461277,678.6402240066647,511.0627721551707,882.2835936291943
1533057201.9970002,272.81975879150696,1056.9667706496678,545.767708791336,407.7656930387927,1093.69290242771
1533057202.0010002,574.3604824169861,990.2042587820426,536.2719551986671,489.31660469647863,1161.34549765476
1533057202.005,698.8016594024051,1145.9682625796827,607.4560896026659,608.9260930944664,958.3877119736096
1533057202.0089998,478.6402702655394,1145.9682625796827,550.5107259389536,625.2385023760762,777.984639967012
1533057202.0129998,287.18024120849304,1045.824494778245,526.7859209034318,576.3124092816098,600.4045152311736
1533057202.0170002,205.82051147403246,1023.5855147158552,616.9518431953347,511.0627721551707,524.2946239884542
1533057202.0210001,483.4238302788426,1079.2057507120576,745.0813412630458,587.1799256357743,949.9361888562445
1533057202.025,674.8740569588125,1157.0877526108775,835.2569828523824,733.9804744198993,1093.69290242771
1533057202.0279999,521.7119151394213,1123.706496677065,882.7163122208594,690.4881395025153,715.9721663831762
1533057202.032,349.40573088974077,1034.70500474705,911.1841344039988,565.4337581770823,575.0326271841658
1533057202.036,311.1176460291621,1068.0862606808626,768.8158655960012,521.9414232596981,1003.4913664244111
1533057202.04,617.4419296679445,1268.3510104435102,588.4743017147617,576.3124092816098,1006.3085407968662
1533057202.044,808.8921563479144,1412.9955242099552,631.1906139356212,706.7894140337621,887.9179423741044
1533057202.0479999,631.8024120849306,1290.6127763461277,659.6584361187605,761.1604000556738,1212.0835008504716
1533057202.052,459.4864254581736,1134.8487725484877,555.2537430865711,657.8633209392957,1254.364208030514
1533057202.056,301.5407236254792,1112.5870066458701,450.8490500543818,489.31660469647863,1009.1257151693212
1533057202.06,502.56787270913196,1190.46900854469,460.34480364705064,489.31660469647863,803.3565280140199
1533057202.064,818.4690787515973,1234.9697545096976,555.2537430865711,646.9846698347683,651.1425184268852
1533057202.0670002,679.6576169721158,1223.8502644785026,488.81262583019,701.3556558566798,887.9179423741044
1533057202.071,502.56787270913196,1279.470500474705,393.90368639066946,576.3124092816098,1017.5830111849905
1533057202.075,330.2616884594514,1279.470500474705,412.88547427857355,483.8828465193963,918.9241791660223
1533057202.079,435.55882301458104,1112.5870066458701,503.05139657047647,489.31660469647863,780.8075872377713
1533057202.083,808.8921563479144,979.0847687508477,616.9518431953347,587.1799256357743,949.9361888562445
1533057202.0870001,761.0271490836528,1034.70500474705,654.9154189711429,668.7419720438232,986.5767743930725
1533057202.091,560.0,1112.5870066458701,607.4560896026659,565.4337581770823,752.6185248183083
1533057202.095,421.1983405975949,1145.9682625796827,616.9518431953347,521.9414232596981,983.7596000206175
1533057202.099,545.6395175830139,1134.8487725484877,650.1724018235253,587.1799256357743,1073.9611360239162
1533057202.103,866.3242836387824,1056.9667706496678,673.8972068590471,641.550911657686,862.5518272254008
1533057202.107,789.748113917625,1012.4660246846603,678.6402240066647,744.847990774064,862.5518272254008
1533057202.11,579.1440424302893,1101.467516614675,616.9518431953347,761.1604000556738,1169.797020772125
1533057202.1139998,392.47737576362266,1079.2057507120576,640.6766482308565,663.297079116378,989.3939487655275
1533057202.1179998,492.9909503054491,1056.9667706496678,664.4111725638118,657.8633209392957,997.8512447811969
1533057202.1220002,918.9728509163472,1068.0862606808626,749.8340777080971,804.6638697234207,1104.9673728158343
1533057202.1260002,890.2616884594514,945.7035128170352,873.2205586281906,913.3947070168811,890.7408896448636
1533057202.13,641.3695321115371,912.3222568832226,835.2569828523824,859.0237209949695,1085.2356064120406
1533057202.1339998,449.9193054315672,990.2042587820426,792.540670631523,728.5467162428171,1042.9548992319983
1533057202.1379998,368.5497733200301,1068.0862606808626,835.2569828523824,630.6833953035214,797.7164063708057
1533057202.1420002,722.7390642230741,1112.5870066458701,906.4411172563812,728.5467162428171,600.4045152311736
1533057202.1460001,895.0452484727547,1068.0862606808626,778.3018998912364,918.8284651939633,465.0993247770733
1533057202.15,737.0995466400602,1001.3237488132374,669.1541897114295,902.5271906627165,479.19674243595693
1533057202.1529999,492.9909503054491,1012.4660246846603,640.6766482308565,772.0390511602012,670.8742848306788
1533057202.157,363.76621330672685,967.9424928794249,512.5471501631454,630.6833953035214,1107.7845471882893
1533057202.161,737.0995466400602,956.82300284823,612.2088260477171,733.9804744198993,1406.5782176176485
1533057202.165,899.8288084860578,1001.3237488132374,797.2934070765742,859.0237209949695,1011.9486624400804
1533057202.169,670.0904969455092,1068.0862606808626,778.3018998912364,799.2189767959755,746.9784031750941
1533057202.1729999,469.0633478618565,1157.0877526108775,711.8607826348552,755.7266418785914,1161.34549765476
1533057202.177,387.69381575031946,1056.9667706496678,574.2355309744753,744.847990774064,1192.351734446678
1533057202.181,737.0995466400602,990.2042587820426,517.290167310763,853.5899628178872,808.99087675893
1533057202.185,914.189290903044,1034.70500474705,626.4378774905699,869.9023720994969,831.5455904334829
1533057202.189,636.5859720982338,1012.4660246846603,635.9336310832389,793.7852186188933,769.533116849647
1533057202.1920002,368.5497733200301,856.7020208870202,578.9882674195266,690.4881395025153,611.6789856192979
1533057202.196,244.10859633461115,801.05899905059,550.5107259389536,581.7461674586921,715.9721663831762
1533057202.2,579.1440424302893,890.0604909806049,664.4111725638118,674.1757302209055,856.9117055821865
1533057202.204,780.1711915139422,867.8215109182152,778.3018998912364,804.6638697234207,611.6789856192979
1533057202.208,588.7209648339723,834.4402549844026,811.522458519427,810.0976279005031,318.5254368331529
1533057202.2120001,378.126695723713,789.9395090193951,797.2934070765742,761.1604000556738,721.6122880263904
1533057202.216,220.17119151394212,689.7957412179574,721.3565362275241,603.4923349173841,673.6914592031338
1533057202.22,531.2888375431043,678.6762511867626,768.8158655960012,543.6875907183902,820.2711200453585
1533057202.224,808.8921563479144,856.7020208870202,901.6981001087636,641.550911657686,1155.7053760115457
